microns
W/m2/nm
#  
#   VizieR Astronomical Server vizier.hia.nrc.ca
#    Date: 2012-10-16T10:47:37 [V1.91 (20-Jun-2012)]
#   In case of problem, please report to: question@simbad.u-strasbg.fr
# 
#   
#Coosys J2000: eq_FK5 J2000 
#INFO votable-version=1.91 (20-Jun-2012) 
#INFO -ref=VIZ507d3b0c273c 
#INFO -out.max=unlimited 
#INFO queryParameters=7 
#-oc.form=sexa
#-out.max=unlimited
#-nav=cat:J/AJ/135/2245&tab:{J/AJ/135/2245/table7}&key:source=J/AJ/135/2245&HTTPPRM:&-meta&-meta.ucd&
#-source=J/AJ/135/2245/table7
#-order=I
#-out=lambda
#-out=Vega
#

#RESOURCE=yCat_51352245
#Name: J/AJ/135/2245
#Title: Absolute spectrum of the Sun and Vega for 0.2-30um (Rieke+, 2008)
#Table J_AJ_135_2245_table7:
#Name: J/AJ/135/2245/table7
#Title: Reference spectral energy distributions of the Sun and Vega \vizContent{spectrum}(\vGraph{J/AJ/135/2245/./table7}{-l\&y\&-l\&x}{absolute spectrum of Vega})
#---Details of Columns:
    lambda (um)    (F7.4)  [0.2/30] Wavelength [ucd=em.wl]
    Vega (W/m2/nm) (E10.3) Flux density of Vega [ucd=phot.flux.density]
------- ----------
lamb    Vega      
da (um) (W/m2/nm) 
------- ----------
 0.1998  5.581e-11
 0.2017  5.312e-11
 0.2035  5.165e-11
 0.2052  5.752e-11
 0.2070  5.513e-11
 0.2088  5.605e-11
 0.2106  5.649e-11
 0.2124  5.266e-11
 0.2142  4.849e-11
 0.2160  4.765e-11
 0.2177  4.725e-11
 0.2195  5.066e-11
 0.2213  4.364e-11
 0.2230  4.817e-11
 0.2248  4.584e-11
 0.2265  4.412e-11
 0.2283  4.873e-11
 0.2300  3.980e-11
 0.2318  4.393e-11
 0.2335  4.117e-11
 0.2352  4.347e-11
 0.2369  4.007e-11
 0.2390  3.438e-11
 0.2407  3.362e-11
 0.2425  3.663e-11
 0.2445  4.100e-11
 0.2476  3.932e-11
 0.2493  3.658e-11
 0.2510  4.011e-11
 0.2527  3.249e-11
 0.2544  3.617e-11
 0.2564  3.527e-11
 0.2581  4.130e-11
 0.2597  4.073e-11
 0.2614  3.672e-11
 0.2631  3.577e-11
 0.2648  4.346e-11
 0.2664  3.883e-11
 0.2681  4.090e-11
 0.2697  4.054e-11
 0.2714  3.914e-11
 0.2730  3.928e-11
 0.2747  3.523e-11
 0.2763  3.712e-11
 0.2779  3.725e-11
 0.2796  2.674e-11
 0.2812  3.949e-11
 0.2828  3.932e-11
 0.2844  3.757e-11
 0.2861  3.851e-11
 0.2877  3.661e-11
 0.2893  3.762e-11
 0.2909  3.930e-11
 0.2925  3.814e-11
 0.2941  3.819e-11
 0.2957  3.931e-11
 0.2973  3.810e-11
 0.2989  3.832e-11
 0.3004  3.814e-11
 0.3020  3.777e-11
 0.3036  3.863e-11
 0.3052  3.830e-11
 0.3067  3.779e-11
 0.3083  3.845e-11
 0.3098  3.737e-11
 0.3114  3.796e-11
 0.3129  3.736e-11
 0.3145  3.761e-11
 0.3160  3.659e-11
 0.3176  3.767e-11
 0.3191  3.662e-11
 0.3206  3.718e-11
 0.3222  3.630e-11
 0.3237  3.494e-11
 0.3252  3.573e-11
 0.3270  3.598e-11
 0.3298  3.558e-11
 0.3313  3.588e-11
 0.3328  3.535e-11
 0.3343  3.431e-11
 0.3358  3.534e-11
 0.3372  3.461e-11
 0.3387  3.476e-11
 0.3402  3.495e-11
 0.3417  3.469e-11
 0.3432  3.485e-11
 0.3444  3.366e-11
 0.3508  3.380e-11
 0.3562  3.345e-11
 0.3616  3.258e-11
 0.3669  3.258e-11
 0.3723  2.985e-11
 0.3776  4.254e-11
 0.3829  5.570e-11
 0.3883  6.155e-11
 0.3936  7.739e-11
 0.3989  8.005e-11
 0.4042  9.064e-11
 0.4137  8.129e-11
 0.4189  8.186e-11
 0.4242  7.936e-11
 0.4295  7.483e-11
 0.4347  3.247e-11
 0.4399  7.047e-11
 0.4452  6.910e-11
 0.4504  6.664e-11
 0.4556  6.385e-11
 0.4608  6.307e-11
 0.4660  6.082e-11
 0.4712  5.893e-11
 0.4764  5.701e-11
 0.4815  5.404e-11
 0.4867  2.294e-11
 0.4918  5.110e-11
 0.4970  5.027e-11
 0.5021  4.764e-11
 0.5093  4.683e-11
 0.5144  4.526e-11
 0.5195  4.393e-11
 0.5246  4.289e-11
 0.5297  4.170e-11
 0.5358  4.031e-11
 0.5409  3.884e-11
 0.5459  3.799e-11
 0.5510  3.698e-11
 0.5561  3.603e-11
 0.5611  3.509e-11
 0.5671  3.396e-11
 0.5721  3.312e-11
 0.5772  3.223e-11
 0.5822  3.140e-11
 0.5872  3.060e-11
 0.5921  2.981e-11
 0.5971  2.905e-11
 0.6021  2.832e-11
 0.6071  2.765e-11
 0.6120  2.694e-11
 0.6169  2.628e-11
 0.6219  2.569e-11
 0.6278  2.496e-11
 0.6327  2.434e-11
 0.6376  2.349e-11
 0.6425  2.316e-11
 0.6474  2.256e-11
 0.6523  2.152e-11
 0.6572  1.353e-11
 0.6620  2.087e-11
 0.6669  2.063e-11
 0.6718  2.022e-11
 0.6766  1.980e-11
 0.6814  1.935e-11
 0.6863  1.892e-11
 0.6911  1.852e-11
 0.6959  1.815e-11
 0.7007  1.771e-11
 0.7055  1.738e-11
 0.7103  1.702e-11
 0.7150  1.665e-11
 0.7198  1.631e-11
 0.7246  1.597e-11
 0.7293  1.564e-11
 0.7340  1.535e-11
 0.7388  1.503e-11
 0.7435  1.475e-11
 0.7482  1.441e-11
 0.7529  1.417e-11
 0.7576  1.389e-11
 0.7623  1.363e-11
 0.7670  1.336e-11
 0.7717  1.309e-11
 0.7801  1.267e-11
 0.7847  1.242e-11
 0.7903  1.207e-11
 0.7949  1.192e-11
 0.7995  1.165e-11
 0.8042  1.150e-11
 0.8088  1.129e-11
 0.8134  1.110e-11
 0.8180  1.090e-11
 0.8225  1.066e-11
 0.8271  1.054e-11
 0.8317  1.037e-11
 0.8362  1.021e-11
 0.8408  1.004e-11
 0.8453  9.690e-12
 0.8498  9.311e-12
 0.8544  8.948e-12
 0.8589  9.253e-12
 0.8634  9.756e-12
 0.8679  8.112e-12
 0.8724  9.707e-12
 0.8752  7.118e-12
 0.8756  6.808e-12
 0.8760  7.281e-12
 0.8764  8.002e-12
 0.8767  8.585e-12
 0.8771  9.006e-12
 0.8775  9.158e-12
 0.8779  9.311e-12
 0.8783  9.534e-12
 0.8787  9.690e-12
 0.8790  9.798e-12
 0.8794  9.864e-12
 0.8798  9.913e-12
 0.8802  9.929e-12
 0.8806  9.917e-12
 0.8810  9.905e-12
 0.8814  9.888e-12
 0.8818  9.888e-12
 0.8822  9.847e-12
 0.8825  9.765e-12
 0.8829  9.682e-12
 0.8833  9.550e-12
 0.8837  9.455e-12
 0.8841  9.360e-12
 0.8845  9.113e-12
 0.8849  8.783e-12
 0.8853  8.346e-12
 0.8857  7.774e-12
 0.8861  7.053e-12
 0.8865  6.491e-12
 0.8868  6.583e-12
 0.8872  6.675e-12
 0.8876  7.362e-12
 0.8880  7.995e-12
 0.8884  8.470e-12
 0.8888  8.824e-12
 0.8892  9.088e-12
 0.8896  9.286e-12
 0.8900  9.426e-12
 0.8904  9.476e-12
 0.8908  9.525e-12
 0.8912  9.575e-12
 0.8916  9.567e-12
 0.8920  9.624e-12
 0.8924  9.674e-12
 0.8928  9.633e-12
 0.8932  9.608e-12
 0.8936  9.674e-12
 0.8940  9.682e-12
 0.8944  9.690e-12
 0.8948  9.674e-12
 0.8952  9.649e-12
 0.8956  9.624e-12
 0.8960  9.583e-12
 0.8964  9.534e-12
 0.8968  9.476e-12
 0.8972  9.402e-12
 0.8976  9.356e-12
 0.8980  9.311e-12
 0.8984  9.195e-12
 0.8988  9.047e-12
 0.8992  8.857e-12
 0.8996  8.610e-12
 0.9000  8.280e-12
 0.9004  7.859e-12
 0.9008  7.304e-12
 0.9012  6.608e-12
 0.9016  6.361e-12
 0.9020  6.114e-12
 0.9025  6.368e-12
 0.9029  7.041e-12
 0.9033  7.628e-12
 0.9037  8.064e-12
 0.9041  8.387e-12
 0.9045  8.626e-12
 0.9049  8.800e-12
 0.9053  8.932e-12
 0.9057  8.960e-12
 0.9061  8.989e-12
 0.9065  8.923e-12
 0.9070  8.965e-12
 0.9074  9.121e-12
 0.9078  9.146e-12
 0.9082  9.105e-12
 0.9086  9.130e-12
 0.9090  9.097e-12
 0.9094  9.031e-12
 0.9098  9.035e-12
 0.9103  9.039e-12
 0.9107  9.146e-12
 0.9111  9.163e-12
 0.9115  9.080e-12
 0.9119  9.072e-12
 0.9123  9.121e-12
 0.9127  9.113e-12
 0.9132  9.105e-12
 0.9136  9.088e-12
 0.9140  9.080e-12
 0.9144  9.072e-12
 0.9148  9.064e-12
 0.9153  9.039e-12
 0.9157  9.014e-12
 0.9161  8.981e-12
 0.9165  8.948e-12
 0.9169  8.915e-12
 0.9174  8.866e-12
 0.9178  8.800e-12
 0.9182  8.734e-12
 0.9186  8.668e-12
 0.9190  8.585e-12
 0.9195  8.536e-12
 0.9199  8.486e-12
 0.9203  8.346e-12
 0.9207  8.155e-12
 0.9212  7.907e-12
 0.9216  7.572e-12
 0.9220  7.140e-12
 0.9224  6.609e-12
 0.9229  5.993e-12
 0.9233  5.682e-12
 0.9237  6.069e-12
 0.9241  6.678e-12
 0.9246  6.916e-12
 0.9250  7.154e-12
 0.9254  7.535e-12
 0.9258  7.813e-12
 0.9263  7.932e-12
 0.9267  7.945e-12
 0.9271  8.092e-12
 0.9276  8.313e-12
 0.9280  8.420e-12
 0.9284  8.470e-12
 0.9289  8.494e-12
 0.9293  8.511e-12
 0.9297  8.511e-12
 0.9302  8.511e-12
 0.9306  8.511e-12
 0.9310  8.519e-12
 0.9315  8.519e-12
 0.9319  8.519e-12
 0.9323  8.511e-12
 0.9328  8.503e-12
 0.9332  8.486e-12
 0.9336  8.486e-12
 0.9341  8.478e-12
 0.9345  8.462e-12
 0.9349  8.453e-12
 0.9354  8.437e-12
 0.9358  8.429e-12
 0.9362  8.420e-12
 0.9367  8.412e-12
 0.9371  8.404e-12
 0.9376  8.387e-12
 0.9380  8.371e-12
 0.9384  8.354e-12
 0.9389  8.330e-12
 0.9393  8.288e-12
 0.9398  8.272e-12
 0.9402  8.264e-12
 0.9407  8.186e-12
 0.9411  8.126e-12
 0.9415  8.166e-12
 0.9420  8.194e-12
 0.9424  8.207e-12
 0.9429  8.199e-12
 0.9433  8.191e-12
 0.9438  8.182e-12
 0.9442  8.162e-12
 0.9446  8.146e-12
 0.9451  8.132e-12
 0.9455  8.115e-12
 0.9460  8.095e-12
 0.9464  8.069e-12
 0.9469  8.044e-12
 0.9473  8.023e-12
 0.9478  7.996e-12
 0.9482  7.963e-12
 0.9487  7.925e-12
 0.9491  7.886e-12
 0.9496  7.839e-12
 0.9500  7.779e-12
 0.9505  7.707e-12
 0.9509  7.662e-12
 0.9514  7.616e-12
 0.9518  7.502e-12
 0.9523  7.356e-12
 0.9527  7.164e-12
 0.9532  6.916e-12
 0.9537  6.588e-12
 0.9541  6.150e-12
 0.9546  5.588e-12
 0.9550  5.168e-12
 0.9555  5.366e-12
 0.9559  5.914e-12
 0.9564  6.383e-12
 0.9569  6.724e-12
 0.9573  6.973e-12
 0.9578  7.157e-12
 0.9582  7.292e-12
 0.9587  7.390e-12
 0.9591  7.459e-12
 0.9596  7.506e-12
 0.9601  7.523e-12
 0.9605  7.523e-12
 0.9610  7.524e-12
 0.9615  7.558e-12
 0.9619  7.580e-12
 0.9624  7.544e-12
 0.9628  7.522e-12
 0.9633  7.548e-12
 0.9638  7.538e-12
 0.9642  7.556e-12
 0.9647  7.577e-12
 0.9652  7.568e-12
 0.9656  7.538e-12
 0.9661  7.475e-12
 0.9666  7.466e-12
 0.9670  7.515e-12
 0.9675  7.521e-12
 0.9680  7.509e-12
 0.9684  7.495e-12
 0.9689  7.485e-12
 0.9694  7.473e-12
 0.9698  7.463e-12
 0.9703  7.456e-12
 0.9708  7.446e-12
 0.9713  7.435e-12
 0.9717  7.422e-12
 0.9722  7.410e-12
 0.9727  7.396e-12
 0.9731  7.390e-12
 0.9736  7.384e-12
 0.9741  7.370e-12
 0.9746  7.353e-12
 0.9750  7.344e-12
 0.9755  7.335e-12
 0.9760  7.323e-12
 0.9765  7.311e-12
 0.9769  7.299e-12
 0.9774  7.286e-12
 0.9779  7.274e-12
 0.9784  7.261e-12
 0.9789  7.248e-12
 0.9793  7.235e-12
 0.9798  7.223e-12
 0.9803  7.210e-12
 0.9808  7.197e-12
 0.9813  7.185e-12
 0.9817  7.171e-12
 0.9822  7.157e-12
 0.9827  7.139e-12
 0.9832  7.124e-12
 0.9837  7.118e-12
 0.9842  7.108e-12
 0.9846  7.095e-12
 0.9851  7.079e-12
 0.9856  7.054e-12
 0.9861  7.032e-12
 0.9866  7.027e-12
 0.9871  7.026e-12
 0.9876  7.019e-12
 0.9880  7.008e-12
 0.9885  6.990e-12
 0.9890  6.947e-12
 0.9895  6.909e-12
 0.9900  6.929e-12
 0.9905  6.938e-12
 0.9910  6.928e-12
 0.9915  6.909e-12
 0.9920  6.893e-12
 0.9925  6.883e-12
 0.9930  6.862e-12
 0.9934  6.834e-12
 0.9939  6.827e-12
 0.9944  6.820e-12
 0.9949  6.807e-12
 0.9954  6.792e-12
 0.9959  6.775e-12
 0.9964  6.757e-12
 0.9969  6.737e-12
 0.9974  6.715e-12
 0.9979  6.690e-12
 0.9984  6.662e-12
 0.9989  6.630e-12
 0.9994  6.589e-12
 0.9999  6.488e-12
 1.0005  6.430e-12
 1.0010  6.350e-12
 1.0015  6.246e-12
 1.0020  6.111e-12
 1.0025  5.935e-12
 1.0030  5.705e-12
 1.0035  5.394e-12
 1.0040  4.975e-12
 1.0045  4.536e-12
 1.0050  4.493e-12
 1.0055  4.893e-12
 1.0060  5.308e-12
 1.0065  5.610e-12
 1.0071  5.829e-12
 1.0076  5.988e-12
 1.0081  6.101e-12
 1.0086  6.168e-12
 1.0091  6.208e-12
 1.0096  6.267e-12
 1.0101  6.307e-12
 1.0106  6.313e-12
 1.0111  6.311e-12
 1.0116  6.321e-12
 1.0122  6.314e-12
 1.0127  6.330e-12
 1.0132  6.358e-12
 1.0137  6.363e-12
 1.0142  6.355e-12
 1.0147  6.347e-12
 1.0152  6.343e-12
 1.0157  6.337e-12
 1.0163  6.326e-12
 1.0168  6.320e-12
 1.0173  6.313e-12
 1.0178  6.304e-12
 1.0183  6.293e-12
 1.0189  6.284e-12
 1.0194  6.277e-12
 1.0199  6.269e-12
 1.0204  6.260e-12
 1.0209  6.250e-12
 1.0215  6.238e-12
 1.0220  6.228e-12
 1.0225  6.219e-12
 1.0230  6.209e-12
 1.0235  6.199e-12
 1.0241  6.188e-12
 1.0246  6.177e-12
 1.0251  6.167e-12
 1.0256  6.157e-12
 1.0262  6.147e-12
 1.0267  6.137e-12
 1.0272  6.127e-12
 1.0278  6.117e-12
 1.0283  6.106e-12
 1.0288  6.095e-12
 1.0293  6.085e-12
 1.0299  6.075e-12
 1.0304  6.065e-12
 1.0309  6.054e-12
 1.0315  6.043e-12
 1.0320  6.033e-12
 1.0325  6.019e-12
 1.0331  6.002e-12
 1.0336  5.989e-12
 1.0341  5.981e-12
 1.0347  5.971e-12
 1.0352  5.961e-12
 1.0357  5.949e-12
 1.0363  5.935e-12
 1.0368  5.922e-12
 1.0373  5.915e-12
 1.0379  5.908e-12
 1.0384  5.898e-12
 1.0390  5.888e-12
 1.0395  5.878e-12
 1.0400  5.867e-12
 1.0406  5.856e-12
 1.0411  5.847e-12
 1.0417  5.838e-12
 1.0422  5.827e-12
 1.0428  5.817e-12
 1.0433  5.808e-12
 1.0438  5.798e-12
 1.0444  5.786e-12
 1.0449  5.767e-12
 1.0455  5.733e-12
 1.0460  5.717e-12
 1.0466  5.728e-12
 1.0471  5.729e-12
 1.0477  5.722e-12
 1.0482  5.705e-12
 1.0488  5.695e-12
 1.0493  5.682e-12
 1.0499  5.665e-12
 1.0504  5.653e-12
 1.0510  5.647e-12
 1.0515  5.637e-12
 1.0521  5.626e-12
 1.0526  5.622e-12
 1.0532  5.613e-12
 1.0537  5.595e-12
 1.0543  5.583e-12
 1.0549  5.579e-12
 1.0554  5.573e-12
 1.0560  5.564e-12
 1.0565  5.556e-12
 1.0571  5.547e-12
 1.0576  5.535e-12
 1.0582  5.520e-12
 1.0588  5.502e-12
 1.0593  5.495e-12
 1.0599  5.482e-12
 1.0604  5.474e-12
 1.0610  5.470e-12
 1.0616  5.462e-12
 1.0621  5.450e-12
 1.0627  5.436e-12
 1.0633  5.427e-12
 1.0638  5.421e-12
 1.0644  5.413e-12
 1.0650  5.403e-12
 1.0655  5.389e-12
 1.0661  5.375e-12
 1.0667  5.369e-12
 1.0672  5.356e-12
 1.0678  5.318e-12
 1.0684  5.232e-12
 1.0690  5.206e-12
 1.0695  5.271e-12
 1.0701  5.273e-12
 1.0707  5.247e-12
 1.0712  5.265e-12
 1.0718  5.272e-12
 1.0724  5.241e-12
 1.0730  5.205e-12
 1.0735  5.223e-12
 1.0741  5.236e-12
 1.0747  5.221e-12
 1.0753  5.199e-12
 1.0759  5.192e-12
 1.0764  5.196e-12
 1.0770  5.191e-12
 1.0776  5.170e-12
 1.0782  5.155e-12
 1.0788  5.144e-12
 1.0793  5.138e-12
 1.0799  5.128e-12
 1.0805  5.113e-12
 1.0811  5.094e-12
 1.0817  5.087e-12
 1.0823  5.072e-12
 1.0828  5.047e-12
 1.0834  5.044e-12
 1.0840  5.041e-12
 1.0846  5.028e-12
 1.0852  4.997e-12
 1.0858  4.974e-12
 1.0864  4.941e-12
 1.0870  4.912e-12
 1.0876  4.898e-12
 1.0881  4.872e-12
 1.0887  4.832e-12
 1.0893  4.787e-12
 1.0899  4.727e-12
 1.0905  4.651e-12
 1.0911  4.542e-12
 1.0917  4.400e-12
 1.0923  4.041e-12
 1.0929  3.743e-12
 1.0935  3.464e-12
 1.0941  3.509e-12
 1.0947  3.802e-12
 1.0953  4.064e-12
 1.0959  4.259e-12
 1.0965  4.399e-12
 1.0971  4.500e-12
 1.0977  4.571e-12
 1.0983  4.622e-12
 1.0989  4.692e-12
 1.0995  4.712e-12
 1.1001  4.725e-12
 1.1007  4.732e-12
 1.1013  4.732e-12
 1.1019  4.731e-12
 1.1025  4.737e-12
 1.1031  4.739e-12
 1.1038  4.737e-12
 1.1044  4.733e-12
 1.1050  4.723e-12
 1.1056  4.718e-12
 1.1062  4.712e-12
 1.1068  4.707e-12
 1.1074  4.700e-12
 1.1080  4.693e-12
 1.1087  4.687e-12
 1.1093  4.679e-12
 1.1099  4.672e-12
 1.1105  4.665e-12
 1.1111  4.650e-12
 1.1117  4.641e-12
 1.1124  4.632e-12
 1.1130  4.623e-12
 1.1136  4.618e-12
 1.1142  4.611e-12
 1.1148  4.604e-12
 1.1155  4.596e-12
 1.1161  4.589e-12
 1.1167  4.574e-12
 1.1173  4.566e-12
 1.1179  4.557e-12
 1.1186  4.546e-12
 1.1192  4.539e-12
 1.1198  4.533e-12
 1.1205  4.526e-12
 1.1211  4.519e-12
 1.1217  4.511e-12
 1.1223  4.495e-12
 1.1230  4.487e-12
 1.1236  4.480e-12
 1.1242  4.472e-12
 1.1249  4.462e-12
 1.1255  4.450e-12
 1.1261  4.444e-12
 1.1268  4.439e-12
 1.1274  4.419e-12
 1.1280  4.370e-12
 1.1287  4.317e-12
 1.1293  4.319e-12
 1.1299  4.321e-12
 1.1306  4.343e-12
 1.1312  4.368e-12
 1.1319  4.368e-12
 1.1325  4.323e-12
 1.1332  4.310e-12
 1.1338  4.326e-12
 1.1344  4.331e-12
 1.1351  4.324e-12
 1.1357  4.314e-12
 1.1364  4.307e-12
 1.1370  4.298e-12
 1.1377  4.280e-12
 1.1383  4.277e-12
 1.1390  4.270e-12
 1.1396  4.261e-12
 1.1403  4.251e-12
 1.1409  4.243e-12
 1.1416  4.241e-12
 1.1422  4.228e-12
 1.1429  4.221e-12
 1.1435  4.212e-12
 1.1442  4.196e-12
 1.1448  4.183e-12
 1.1455  4.184e-12
 1.1461  4.183e-12
 1.1468  4.170e-12
 1.1475  4.162e-12
 1.1481  4.155e-12
 1.1488  4.147e-12
 1.1494  4.140e-12
 1.1501  4.133e-12
 1.1508  4.125e-12
 1.1514  4.111e-12
 1.1521  4.104e-12
 1.1527  4.096e-12
 1.1534  4.090e-12
 1.1541  4.082e-12
 1.1547  4.075e-12
 1.1554  4.067e-12
 1.1561  4.053e-12
 1.1567  4.045e-12
 1.1574  4.039e-12
 1.1581  4.032e-12
 1.1588  4.024e-12
 1.1594  4.016e-12
 1.1601  3.997e-12
 1.1608  3.989e-12
 1.1614  3.973e-12
 1.1621  3.962e-12
 1.1628  3.954e-12
 1.1635  3.955e-12
 1.1641  3.958e-12
 1.1648  3.926e-12
 1.1655  3.893e-12
 1.1662  3.884e-12
 1.1669  3.887e-12
 1.1675  3.893e-12
 1.1682  3.906e-12
 1.1689  3.898e-12
 1.1696  3.892e-12
 1.1703  3.885e-12
 1.1710  3.879e-12
 1.1717  3.871e-12
 1.1723  3.865e-12
 1.1730  3.850e-12
 1.1737  3.839e-12
 1.1744  3.803e-12
 1.1751  3.742e-12
 1.1758  3.738e-12
 1.1765  3.791e-12
 1.1772  3.794e-12
 1.1779  3.785e-12
 1.1786  3.785e-12
 1.1792  3.780e-12
 1.1799  3.767e-12
 1.1806  3.759e-12
 1.1813  3.756e-12
 1.1820  3.744e-12
 1.1827  3.729e-12
 1.1834  3.714e-12
 1.1841  3.700e-12
 1.1848  3.709e-12
 1.1855  3.705e-12
 1.1862  3.697e-12
 1.1869  3.693e-12
 1.1877  3.685e-12
 1.1884  3.673e-12
 1.1891  3.636e-12
 1.1898  3.635e-12
 1.1905  3.652e-12
 1.1912  3.652e-12
 1.1919  3.646e-12
 1.1926  3.633e-12
 1.1933  3.626e-12
 1.1940  3.616e-12
 1.1947  3.597e-12
 1.1955  3.589e-12
 1.1962  3.593e-12
 1.1969  3.586e-12
 1.1976  3.577e-12
 1.1983  3.563e-12
 1.1990  3.554e-12
 1.1998  3.554e-12
 1.2005  3.550e-12
 1.2012  3.544e-12
 1.2019  3.536e-12
 1.2027  3.525e-12
 1.2034  3.509e-12
 1.2041  3.511e-12
 1.2048  3.506e-12
 1.2056  3.500e-12
 1.2063  3.493e-12
 1.2070  3.487e-12
 1.2077  3.460e-12
 1.2085  3.448e-12
 1.2092  3.454e-12
 1.2099  3.453e-12
 1.2107  3.445e-12
 1.2114  3.433e-12
 1.2121  3.431e-12
 1.2129  3.426e-12
 1.2136  3.420e-12
 1.2143  3.408e-12
 1.2151  3.402e-12
 1.2158  3.395e-12
 1.2166  3.388e-12
 1.2173  3.381e-12
 1.2180  3.370e-12
 1.2188  3.364e-12
 1.2195  3.359e-12
 1.2203  3.352e-12
 1.2210  3.346e-12
 1.2218  3.336e-12
 1.2225  3.329e-12
 1.2232  3.323e-12
 1.2240  3.316e-12
 1.2247  3.300e-12
 1.2255  3.296e-12
 1.2262  3.288e-12
 1.2270  3.282e-12
 1.2278  3.279e-12
 1.2285  3.271e-12
 1.2293  3.265e-12
 1.2300  3.259e-12
 1.2308  3.253e-12
 1.2315  3.238e-12
 1.2323  3.234e-12
 1.2331  3.226e-12
 1.2338  3.220e-12
 1.2346  3.214e-12
 1.2353  3.206e-12
 1.2361  3.202e-12
 1.2369  3.197e-12
 1.2376  3.190e-12
 1.2384  3.178e-12
 1.2392  3.173e-12
 1.2399  3.168e-12
 1.2407  3.162e-12
 1.2415  3.150e-12
 1.2422  3.145e-12
 1.2430  3.139e-12
 1.2438  3.134e-12
 1.2446  3.122e-12
 1.2453  3.113e-12
 1.2461  3.098e-12
 1.2469  3.091e-12
 1.2477  3.094e-12
 1.2484  3.089e-12
 1.2492  3.084e-12
 1.2500  3.078e-12
 1.2508  3.072e-12
 1.2516  3.060e-12
 1.2524  3.055e-12
 1.2531  3.051e-12
 1.2539  3.045e-12
 1.2547  3.028e-12
 1.2555  3.023e-12
 1.2563  3.013e-12
 1.2571  3.004e-12
 1.2579  2.998e-12
 1.2587  2.996e-12
 1.2595  2.992e-12
 1.2602  2.983e-12
 1.2610  2.965e-12
 1.2618  2.962e-12
 1.2626  2.965e-12
 1.2634  2.961e-12
 1.2642  2.949e-12
 1.2650  2.943e-12
 1.2658  2.937e-12
 1.2666  2.924e-12
 1.2674  2.918e-12
 1.2682  2.911e-12
 1.2690  2.905e-12
 1.2698  2.891e-12
 1.2707  2.884e-12
 1.2715  2.876e-12
 1.2723  2.868e-12
 1.2731  2.848e-12
 1.2739  2.836e-12
 1.2747  2.823e-12
 1.2755  2.807e-12
 1.2763  2.767e-12
 1.2771  2.739e-12
 1.2780  2.704e-12
 1.2788  2.600e-12
 1.2796  2.520e-12
 1.2804  2.411e-12
 1.2812  2.256e-12
 1.2821  2.148e-12
 1.2829  2.306e-12
 1.2837  2.435e-12
 1.2845  2.522e-12
 1.2854  2.627e-12
 1.2862  2.657e-12
 1.2870  2.679e-12
 1.2878  2.704e-12
 1.2887  2.711e-12
 1.2895  2.714e-12
 1.2903  2.717e-12
 1.2912  2.717e-12
 1.2920  2.716e-12
 1.2928  2.714e-12
 1.2937  2.708e-12
 1.2945  2.705e-12
 1.2953  2.702e-12
 1.2962  2.698e-12
 1.2970  2.690e-12
 1.2979  2.687e-12
 1.2987  2.683e-12
 1.2996  2.675e-12
 1.3004  2.670e-12
 1.3012  2.665e-12
 1.3021  2.656e-12
 1.3029  2.652e-12
 1.3038  2.648e-12
 1.3046  2.644e-12
 1.3055  2.635e-12
 1.3063  2.630e-12
 1.3072  2.625e-12
 1.3080  2.616e-12
 1.3089  2.612e-12
 1.3098  2.608e-12
 1.3106  2.598e-12
 1.3115  2.593e-12
 1.3123  2.586e-12
 1.3132  2.582e-12
 1.3141  2.575e-12
 1.3149  2.569e-12
 1.3158  2.562e-12
 1.3167  2.547e-12
 1.3175  2.550e-12
 1.3184  2.548e-12
 1.3193  2.539e-12
 1.3201  2.534e-12
 1.3210  2.530e-12
 1.3219  2.521e-12
 1.3228  2.517e-12
 1.3236  2.512e-12
 1.3245  2.503e-12
 1.3254  2.499e-12
 1.3263  2.494e-12
 1.3271  2.486e-12
 1.3280  2.481e-12
 1.3289  2.477e-12
 1.3298  2.472e-12
 1.3307  2.463e-12
 1.3316  2.459e-12
 1.3324  2.454e-12
 1.3333  2.446e-12
 1.3342  2.442e-12
 1.3351  2.437e-12
 1.3360  2.429e-12
 1.3369  2.424e-12
 1.3378  2.420e-12
 1.3387  2.411e-12
 1.3396  2.406e-12
 1.3405  2.402e-12
 1.3414  2.393e-12
 1.3423  2.389e-12
 1.3432  2.384e-12
 1.3441  2.377e-12
 1.3450  2.373e-12
 1.3459  2.367e-12
 1.3468  2.357e-12
 1.3477  2.355e-12
 1.3486  2.351e-12
 1.3495  2.340e-12
 1.3504  2.333e-12
 1.3514  2.330e-12
 1.3523  2.326e-12
 1.3532  2.321e-12
 1.3541  2.311e-12
 1.3550  2.308e-12
 1.3559  2.303e-12
 1.3569  2.296e-12
 1.3578  2.292e-12
 1.3587  2.287e-12
 1.3596  2.279e-12
 1.3605  2.276e-12
 1.3615  2.271e-12
 1.3624  2.263e-12
 1.3633  2.260e-12
 1.3643  2.256e-12
 1.3652  2.244e-12
 1.3661  2.242e-12
 1.3671  2.236e-12
 1.3680  2.232e-12
 1.3689  2.226e-12
 1.3699  2.211e-12
 1.3708  2.212e-12
 1.3717  2.211e-12
 1.3727  2.204e-12
 1.3736  2.198e-12
 1.3746  2.190e-12
 1.3755  2.186e-12
 1.3765  2.182e-12
 1.3774  2.176e-12
 1.3784  2.172e-12
 1.3793  2.168e-12
 1.3803  2.161e-12
 1.3812  2.157e-12
 1.3822  2.153e-12
 1.3831  2.144e-12
 1.3841  2.141e-12
 1.3850  2.134e-12
 1.3860  2.130e-12
 1.3870  2.126e-12
 1.3879  2.119e-12
 1.3889  2.115e-12
 1.3899  2.111e-12
 1.3908  2.103e-12
 1.3918  2.099e-12
 1.3928  2.091e-12
 1.3937  2.086e-12
 1.3947  2.082e-12
 1.3957  2.077e-12
 1.3967  2.073e-12
 1.3976  2.066e-12
 1.3986  2.062e-12
 1.3996  2.058e-12
 1.4006  2.051e-12
 1.4015  2.047e-12
 1.4025  2.040e-12
 1.4035  2.036e-12
 1.4045  2.033e-12
 1.4055  2.025e-12
 1.4065  2.022e-12
 1.4075  2.015e-12
 1.4085  2.011e-12
 1.4094  2.007e-12
 1.4104  2.000e-12
 1.4114  1.996e-12
 1.4124  1.989e-12
 1.4134  1.985e-12
 1.4144  1.982e-12
 1.4154  1.974e-12
 1.4164  1.971e-12
 1.4174  1.964e-12
 1.4184  1.960e-12
 1.4195  1.957e-12
 1.4205  1.950e-12
 1.4215  1.946e-12
 1.4225  1.939e-12
 1.4235  1.936e-12
 1.4245  1.929e-12
 1.4255  1.926e-12
 1.4265  1.922e-12
 1.4276  1.915e-12
 1.4286  1.912e-12
 1.4296  1.904e-12
 1.4306  1.901e-12
 1.4316  1.898e-12
 1.4327  1.891e-12
 1.4337  1.888e-12
 1.4347  1.881e-12
 1.4358  1.878e-12
 1.4368  1.871e-12
 1.4378  1.867e-12
 1.4389  1.864e-12
 1.4399  1.844e-12
 1.4409  1.843e-12
 1.4420  1.834e-12
 1.4430  1.835e-12
 1.4440  1.833e-12
 1.4451  1.832e-12
 1.4461  1.827e-12
 1.4472  1.823e-12
 1.4482  1.821e-12
 1.4493  1.814e-12
 1.4503  1.809e-12
 1.4514  1.803e-12
 1.4524  1.800e-12
 1.4535  1.785e-12
 1.4546  1.779e-12
 1.4556  1.784e-12
 1.4567  1.781e-12
 1.4577  1.779e-12
 1.4588  1.772e-12
 1.4599  1.769e-12
 1.4609  1.762e-12
 1.4620  1.759e-12
 1.4631  1.748e-12
 1.4641  1.745e-12
 1.4652  1.744e-12
 1.4663  1.741e-12
 1.4674  1.734e-12
 1.4684  1.732e-12
 1.4695  1.729e-12
 1.4706  1.723e-12
 1.4717  1.720e-12
 1.4728  1.714e-12
 1.4738  1.710e-12
 1.4749  1.703e-12
 1.4760  1.699e-12
 1.4771  1.694e-12
 1.4782  1.687e-12
 1.4793  1.687e-12
 1.4804  1.683e-12
 1.4815  1.678e-12
 1.4826  1.674e-12
 1.4837  1.668e-12
 1.4848  1.665e-12
 1.4859  1.659e-12
 1.4870  1.653e-12
 1.4881  1.647e-12
 1.4892  1.649e-12
 1.4903  1.647e-12
 1.4914  1.641e-12
 1.4925  1.638e-12
 1.4937  1.632e-12
 1.4948  1.629e-12
 1.4959  1.622e-12
 1.4970  1.618e-12
 1.4981  1.615e-12
 1.4993  1.612e-12
 1.5004  1.607e-12
 1.5015  1.603e-12
 1.5026  1.593e-12
 1.5038  1.591e-12
 1.5049  1.584e-12
 1.5060  1.584e-12
 1.5072  1.580e-12
 1.5083  1.577e-12
 1.5094  1.571e-12
 1.5106  1.569e-12
 1.5117  1.564e-12
 1.5129  1.560e-12
 1.5140  1.554e-12
 1.5152  1.551e-12
 1.5163  1.547e-12
 1.5175  1.544e-12
 1.5186  1.536e-12
 1.5198  1.533e-12
 1.5209  1.530e-12
 1.5221  1.526e-12
 1.5232  1.522e-12
 1.5244  1.513e-12
 1.5256  1.508e-12
 1.5267  1.504e-12
 1.5279  1.503e-12
 1.5291  1.500e-12
 1.5302  1.498e-12
 1.5314  1.490e-12
 1.5326  1.484e-12
 1.5337  1.471e-12
 1.5349  1.470e-12
 1.5361  1.472e-12
 1.5373  1.473e-12
 1.5385  1.471e-12
 1.5397  1.468e-12
 1.5408  1.457e-12
 1.5420  1.450e-12
 1.5432  1.430e-12
 1.5444  1.426e-12
 1.5456  1.431e-12
 1.5468  1.438e-12
 1.5480  1.439e-12
 1.5492  1.437e-12
 1.5504  1.434e-12
 1.5516  1.424e-12
 1.5528  1.417e-12
 1.5540  1.390e-12
 1.5552  1.374e-12
 1.5564  1.367e-12
 1.5576  1.389e-12
 1.5589  1.396e-12
 1.5601  1.402e-12
 1.5613  1.403e-12
 1.5625  1.400e-12
 1.5637  1.396e-12
 1.5649  1.387e-12
 1.5662  1.380e-12
 1.5674  1.354e-12
 1.5686  1.309e-12
 1.5699  1.287e-12
 1.5711  1.306e-12
 1.5723  1.325e-12
 1.5736  1.348e-12
 1.5748  1.354e-12
 1.5760  1.358e-12
 1.5773  1.357e-12
 1.5785  1.357e-12
 1.5798  1.353e-12
 1.5810  1.349e-12
 1.5823  1.338e-12
 1.5835  1.329e-12
 1.5848  1.301e-12
 1.5860  1.248e-12
 1.5873  1.210e-12
 1.5886  1.198e-12
 1.5898  1.230e-12
 1.5911  1.279e-12
 1.5924  1.292e-12
 1.5936  1.306e-12
 1.5949  1.310e-12
 1.5962  1.310e-12
 1.5974  1.310e-12
 1.5987  1.309e-12
 1.6000  1.304e-12
 1.6013  1.297e-12
 1.6026  1.293e-12
 1.6039  1.284e-12
 1.6051  1.277e-12
 1.6064  1.254e-12
 1.6077  1.212e-12
 1.6090  1.179e-12
 1.6103  1.090e-12
 1.6116  1.084e-12
 1.6129  1.160e-12
 1.6142  1.213e-12
 1.6155  1.227e-12
 1.6168  1.244e-12
 1.6181  1.248e-12
 1.6194  1.252e-12
 1.6207  1.252e-12
 1.6221  1.252e-12
 1.6234  1.249e-12
 1.6247  1.248e-12
 1.6260  1.244e-12
 1.6273  1.240e-12
 1.6287  1.237e-12
 1.6300  1.230e-12
 1.6313  1.221e-12
 1.6327  1.216e-12
 1.6340  1.201e-12
 1.6353  1.191e-12
 1.6367  1.160e-12
 1.6380  1.105e-12
 1.6393  1.064e-12
 1.6407  9.855e-13
 1.6420  1.050e-12
 1.6434  1.088e-12
 1.6447  1.136e-12
 1.6461  1.159e-12
 1.6475  1.165e-12
 1.6488  1.174e-12
 1.6502  1.175e-12
 1.6515  1.176e-12
 1.6529  1.175e-12
 1.6543  1.174e-12
 1.6556  1.171e-12
 1.6570  1.169e-12
 1.6584  1.167e-12
 1.6598  1.163e-12
 1.6611  1.159e-12
 1.6625  1.156e-12
 1.6639  1.151e-12
 1.6653  1.146e-12
 1.6667  1.143e-12
 1.6681  1.137e-12
 1.6695  1.130e-12
 1.6708  1.126e-12
 1.6722  1.114e-12
 1.6736  1.099e-12
 1.6750  1.088e-12
 1.6765  1.057e-12
 1.6779  1.006e-12
 1.6793  9.666e-13
 1.6807  8.940e-13
 1.6821  9.624e-13
 1.6835  9.971e-13
 1.6849  1.040e-12
 1.6863  1.061e-12
 1.6878  1.067e-12
 1.6892  1.069e-12
 1.6906  1.077e-12
 1.6921  1.078e-12
 1.6935  1.077e-12
 1.6949  1.075e-12
 1.6964  1.073e-12
 1.6978  1.070e-12
 1.6992  1.067e-12
 1.7007  1.063e-12
 1.7021  1.062e-12
 1.7036  1.058e-12
 1.7050  1.055e-12
 1.7065  1.053e-12
 1.7079  1.047e-12
 1.7094  1.042e-12
 1.7109  1.041e-12
 1.7123  1.038e-12
 1.7138  1.035e-12
 1.7153  1.031e-12
 1.7167  1.028e-12
 1.7182  1.023e-12
 1.7197  1.019e-12
 1.7212  1.017e-12
 1.7227  1.010e-12
 1.7241  1.004e-12
 1.7256  9.971e-13
 1.7271  9.913e-13
 1.7286  9.806e-13
 1.7301  9.641e-13
 1.7316  9.517e-13
 1.7331  9.130e-13
 1.7346  8.494e-13
 1.7361  7.928e-13
 1.7376  8.234e-13
 1.7391  8.915e-13
 1.7406  9.270e-13
 1.7422  9.435e-13
 1.7437  9.476e-13
 1.7452  9.492e-13
 1.7467  9.542e-13
 1.7483  9.550e-13
 1.7498  9.534e-13
 1.7513  9.501e-13
 1.7529  9.492e-13
 1.7544  9.476e-13
 1.7559  9.451e-13
 1.7575  9.426e-13
 1.7590  9.393e-13
 1.7606  9.360e-13
 1.7621  9.336e-13
 1.7637  9.278e-13
 1.7652  9.278e-13
 1.7668  9.261e-13
 1.7684  9.228e-13
 1.7699  9.195e-13
 1.7715  9.154e-13
 1.7731  9.130e-13
 1.7746  9.113e-13
 1.7762  9.064e-13
 1.7778  9.031e-13
 1.7794  9.006e-13
 1.7809  8.981e-13
 1.7825  8.948e-13
 1.7841  8.915e-13
 1.7857  8.882e-13
 1.7873  8.857e-13
 1.7889  8.841e-13
 1.7905  8.808e-13
 1.7921  8.767e-13
 1.7937  8.734e-13
 1.7953  8.717e-13
 1.7969  8.676e-13
 1.7986  8.643e-13
 1.8002  8.602e-13
 1.8018  8.486e-13
 1.8034  8.503e-13
 1.8051  8.486e-13
 1.8067  8.420e-13
 1.8083  8.346e-13
 1.8100  8.236e-13
 1.8116  8.161e-13
 1.8132  7.941e-13
 1.8149  7.553e-13
 1.8165  6.880e-13
 1.8182  6.981e-13
 1.8198  7.314e-13
 1.8215  7.715e-13
 1.8232  7.906e-13
 1.8248  7.991e-13
 1.8265  8.057e-13
 1.8282  8.067e-13
 1.8298  8.066e-13
 1.8315  8.040e-13
 1.8332  8.029e-13
 1.8349  8.015e-13
 1.8366  7.989e-13
 1.8382  7.976e-13
 1.8399  7.950e-13
 1.8416  7.920e-13
 1.8433  7.892e-13
 1.8450  7.864e-13
 1.8467  7.831e-13
 1.8484  7.819e-13
 1.8501  7.789e-13
 1.8519  7.754e-13
 1.8536  7.723e-13
 1.8553  7.682e-13
 1.8570  7.656e-13
 1.8587  7.625e-13
 1.8605  7.607e-13
 1.8622  7.557e-13
 1.8639  7.516e-13
 1.8657  7.457e-13
 1.8674  7.376e-13
 1.8692  7.252e-13
 1.8709  7.038e-13
 1.8727  6.867e-13
 1.8744  6.238e-13
 1.8762  6.163e-13
 1.8779  6.769e-13
 1.8797  7.022e-13
 1.8815  7.127e-13
 1.8832  7.167e-13
 1.8850  7.173e-13
 1.8868  7.187e-13
 1.8886  7.180e-13
 1.8904  7.164e-13
 1.8922  7.127e-13
 1.8939  7.116e-13
 1.8957  7.100e-13
 1.8975  7.080e-13
 1.8993  7.056e-13
 1.9011  7.044e-13
 1.9030  7.018e-13
 1.9048  6.993e-13
 1.9066  6.968e-13
 1.9084  6.942e-13
 1.9102  6.915e-13
 1.9121  6.890e-13
 1.9139  6.863e-13
 1.9157  6.837e-13
 1.9176  6.809e-13
 1.9194  6.782e-13
 1.9212  6.768e-13
 1.9231  6.740e-13
 1.9249  6.711e-13
 1.9268  6.678e-13
 1.9286  6.648e-13
 1.9305  6.613e-13
 1.9324  6.571e-13
 1.9342  6.520e-13
 1.9361  6.451e-13
 1.9380  6.347e-13
 1.9399  6.177e-13
 1.9418  5.870e-13
 1.9436  5.354e-13
 1.9455  5.338e-13
 1.9474  5.811e-13
 1.9493  6.075e-13
 1.9512  6.198e-13
 1.9531  6.253e-13
 1.9550  6.273e-13
 1.9570  6.274e-13
 1.9589  6.267e-13
 1.9608  6.253e-13
 1.9627  6.235e-13
 1.9646  6.217e-13
 1.9666  6.198e-13
 1.9685  6.176e-13
 1.9704  6.154e-13
 1.9724  6.123e-13
 1.9743  6.111e-13
 1.9763  6.090e-13
 1.9782  6.067e-13
 1.9802  6.045e-13
 1.9822  6.023e-13
 1.9841  6.001e-13
 1.9861  5.978e-13
 1.9881  5.956e-13
 1.9901  5.935e-13
 1.9920  5.912e-13
 1.9940  5.890e-13
 1.9960  5.868e-13
 1.9980  5.857e-13
 2.0000  5.836e-13
 2.0020  5.813e-13
 2.0040  5.792e-13
 2.0060  5.770e-13
 2.0080  5.749e-13
 2.0101  5.728e-13
 2.0121  5.706e-13
 2.0141  5.684e-13
 2.0161  5.662e-13
 2.0182  5.642e-13
 2.0202  5.620e-13
 2.0222  5.589e-13
 2.0243  5.568e-13
 2.0263  5.547e-13
 2.0284  5.525e-13
 2.0305  5.505e-13
 2.0325  5.484e-13
 2.0346  5.464e-13
 2.0367  5.443e-13
 2.0387  5.422e-13
 2.0408  5.403e-13
 2.0429  5.383e-13
 2.0450  5.362e-13
 2.0471  5.342e-13
 2.0492  5.322e-13
 2.0513  5.302e-13
 2.0534  5.282e-13
 2.0555  5.262e-13
 2.0576  5.243e-13
 2.0597  5.222e-13
 2.0619  5.202e-13
 2.0640  5.181e-13
 2.0661  5.163e-13
 2.0683  5.145e-13
 2.0704  5.124e-13
 2.0725  5.105e-13
 2.0747  5.077e-13
 2.0768  5.057e-13
 2.0790  5.039e-13
 2.0812  5.020e-13
 2.0833  5.000e-13
 2.0855  4.982e-13
 2.0877  4.963e-13
 2.0899  4.944e-13
 2.0921  4.923e-13
 2.0942  4.907e-13
 2.0964  4.889e-13
 2.0986  4.870e-13
 2.1008  4.851e-13
 2.1030  4.821e-13
 2.1053  4.806e-13
 2.1075  4.787e-13
 2.1097  4.769e-13
 2.1119  4.751e-13
 2.1142  4.731e-13
 2.1164  4.712e-13
 2.1186  4.690e-13
 2.1209  4.671e-13
 2.1231  4.652e-13
 2.1254  4.620e-13
 2.1277  4.614e-13
 2.1299  4.595e-13
 2.1322  4.580e-13
 2.1345  4.562e-13
 2.1368  4.542e-13
 2.1390  4.524e-13
 2.1413  4.508e-13
 2.1436  4.477e-13
 2.1459  4.458e-13
 2.1482  4.437e-13
 2.1505  4.413e-13
 2.1529  4.386e-13
 2.1552  4.351e-13
 2.1575  4.305e-13
 2.1598  4.184e-13
 2.1622  4.024e-13
 2.1645  3.714e-13
 2.1668  3.727e-13
 2.1692  3.995e-13
 2.1716  4.116e-13
 2.1739  4.182e-13
 2.1763  4.194e-13
 2.1786  4.194e-13
 2.1810  4.188e-13
 2.1834  4.179e-13
 2.1858  4.167e-13
 2.1882  4.147e-13
 2.1906  4.134e-13
 2.1930  4.119e-13
 2.1954  4.105e-13
 2.1978  4.091e-13
 2.2002  4.068e-13
 2.2026  4.053e-13
 2.2051  4.037e-13
 2.2075  4.022e-13
 2.2099  4.008e-13
 2.2124  3.986e-13
 2.2148  3.966e-13
 2.2173  3.950e-13
 2.2198  3.941e-13
 2.2222  3.926e-13
 2.2247  3.904e-13
 2.2272  3.890e-13
 2.2297  3.875e-13
 2.2321  3.860e-13
 2.2346  3.846e-13
 2.2371  3.824e-13
 2.2396  3.810e-13
 2.2422  3.795e-13
 2.2447  3.781e-13
 2.2472  3.760e-13
 2.2497  3.746e-13
 2.2523  3.731e-13
 2.2548  3.716e-13
 2.2573  3.696e-13
 2.2599  3.682e-13
 2.2624  3.668e-13
 2.2650  3.654e-13
 2.2676  3.634e-13
 2.2701  3.619e-13
 2.2727  3.606e-13
 2.2753  3.593e-13
 2.2779  3.573e-13
 2.2805  3.559e-13
 2.2831  3.546e-13
 2.2857  3.533e-13
 2.2883  3.513e-13
 2.2910  3.498e-13
 2.2936  3.487e-13
 2.2962  3.467e-13
 2.2989  3.455e-13
 2.3015  3.442e-13
 2.3041  3.429e-13
 2.3068  3.409e-13
 2.3095  3.397e-13
 2.3121  3.384e-13
 2.3148  3.366e-13
 2.3175  3.352e-13
 2.3202  3.340e-13
 2.3229  3.322e-13
 2.3256  3.309e-13
 2.3283  3.297e-13
 2.3310  3.278e-13
 2.3337  3.266e-13
 2.3364  3.253e-13
 2.3392  3.235e-13
 2.3419  3.224e-13
 2.3447  3.211e-13
 2.3474  3.193e-13
 2.3502  3.182e-13
 2.3529  3.169e-13
 2.3557  3.152e-13
 2.3585  3.140e-13
 2.3613  3.128e-13
 2.3641  3.111e-13
 2.3669  3.099e-13
 2.3697  3.088e-13
 2.3725  3.070e-13
 2.3753  3.059e-13
 2.3781  3.047e-13
 2.3810  3.030e-13
 2.3838  3.018e-13
 2.3866  3.002e-13
 2.3895  2.990e-13
 2.3923  2.979e-13
 2.3952  2.962e-13
 2.3981  2.951e-13
 2.4010  2.933e-13
 2.4060  2.912e-13
 2.4110  2.890e-13
 2.4160  2.867e-13
 2.4210  2.847e-13
 2.4260  2.825e-13
 2.4310  2.801e-13
 2.4360  2.783e-13
 2.4410  2.763e-13
 2.4460  2.737e-13
 2.4510  2.711e-13
 2.4560  2.696e-13
 2.4610  2.675e-13
 2.4660  2.646e-13
 2.4710  2.622e-13
 2.4760  2.614e-13
 2.4810  2.598e-13
 2.4860  2.575e-13
 2.4910  2.540e-13
 2.4960  2.511e-13
 2.5010  2.515e-13
 2.5060  2.503e-13
 2.5110  2.485e-13
 2.5160  2.461e-13
 2.5210  2.420e-13
 2.5260  2.375e-13
 2.5310  2.396e-13
 2.5360  2.394e-13
 2.5410  2.383e-13
 2.5460  2.365e-13
 2.5510  2.343e-13
 2.5560  2.312e-13
 2.5610  2.247e-13
 2.5660  2.225e-13
 2.5710  2.259e-13
 2.5760  2.257e-13
 2.5810  2.245e-13
 2.5860  2.232e-13
 2.5910  2.216e-13
 2.5960  2.195e-13
 2.6010  2.167e-13
 2.6060  2.116e-13
 2.6110  2.005e-13
 2.6160  2.044e-13
 2.6210  2.004e-13
 2.6260  1.832e-13
 2.6310  2.018e-13
 2.6360  2.053e-13
 2.6410  2.054e-13
 2.6460  2.046e-13
 2.6510  2.032e-13
 2.6560  2.016e-13
 2.6610  1.999e-13
 2.6660  1.962e-13
 2.6710  1.870e-13
 2.6760  1.828e-13
 2.6810  1.900e-13
 2.6860  1.923e-13
 2.6910  1.921e-13
 2.6960  1.914e-13
 2.7010  1.902e-13
 2.7060  1.887e-13
 2.7110  1.879e-13
 2.7160  1.865e-13
 2.7210  1.851e-13
 2.7260  1.839e-13
 2.7310  1.824e-13
 2.7360  1.808e-13
 2.7410  1.793e-13
 2.7460  1.766e-13
 2.7510  1.708e-13
 2.7560  1.606e-13
 2.7610  1.644e-13
 2.7660  1.696e-13
 2.7710  1.712e-13
 2.7760  1.709e-13
 2.7810  1.702e-13
 2.7860  1.691e-13
 2.7910  1.682e-13
 2.7960  1.670e-13
 2.8010  1.661e-13
 2.8060  1.649e-13
 2.8110  1.636e-13
 2.8160  1.626e-13
 2.8210  1.614e-13
 2.8260  1.605e-13
 2.8310  1.593e-13
 2.8360  1.583e-13
 2.8410  1.569e-13
 2.8460  1.560e-13
 2.8510  1.545e-13
 2.8560  1.531e-13
 2.8610  1.504e-13
 2.8660  1.466e-13
 2.8710  1.339e-13
 2.8760  1.403e-13
 2.8810  1.458e-13
 2.8860  1.466e-13
 2.8910  1.465e-13
 2.8960  1.457e-13
 2.9010  1.451e-13
 2.9060  1.441e-13
 2.9110  1.433e-13
 2.9160  1.421e-13
 2.9210  1.414e-13
 2.9260  1.406e-13
 2.9310  1.395e-13
 2.9360  1.387e-13
 2.9410  1.376e-13
 2.9460  1.369e-13
 2.9510  1.361e-13
 2.9560  1.351e-13
 2.9610  1.343e-13
 2.9660  1.335e-13
 2.9710  1.324e-13
 2.9760  1.317e-13
 2.9810  1.307e-13
 2.9860  1.299e-13
 2.9910  1.291e-13
 2.9960  1.282e-13
 3.0010  1.273e-13
 3.0060  1.266e-13
 3.0110  1.258e-13
 3.0160  1.245e-13
 3.0210  1.235e-13
 3.0260  1.221e-13
 3.0310  1.185e-13
 3.0360  1.115e-13
 3.0410  1.106e-13
 3.0460  1.164e-13
 3.0510  1.183e-13
 3.0560  1.183e-13
 3.0610  1.179e-13
 3.0660  1.171e-13
 3.0710  1.165e-13
 3.0760  1.159e-13
 3.0810  1.153e-13
 3.0860  1.146e-13
 3.0910  1.138e-13
 3.0960  1.131e-13
 3.1010  1.125e-13
 3.1060  1.118e-13
 3.1110  1.110e-13
 3.1160  1.103e-13
 3.1210  1.097e-13
 3.1260  1.090e-13
 3.1310  1.084e-13
 3.1360  1.078e-13
 3.1410  1.070e-13
 3.1460  1.063e-13
 3.1510  1.057e-13
 3.1560  1.052e-13
 3.1610  1.046e-13
 3.1660  1.040e-13
 3.1710  1.032e-13
 3.1760  1.025e-13
 3.1810  1.019e-13
 3.1860  1.014e-13
 3.1910  1.008e-13
 3.1960  1.002e-13
 3.2010  9.962e-14
 3.2060  9.905e-14
 3.2110  9.831e-14
 3.2160  9.773e-14
 3.2210  9.715e-14
 3.2260  9.657e-14
 3.2310  9.600e-14
 3.2360  9.550e-14
 3.2410  9.492e-14
 3.2460  9.435e-14
 3.2510  9.377e-14
 3.2560  9.319e-14
 3.2610  9.270e-14
 3.2660  9.204e-14
 3.2710  9.146e-14
 3.2760  9.055e-14
 3.2810  8.948e-14
 3.2860  8.791e-14
 3.2910  8.462e-14
 3.2960  7.902e-14
 3.3010  8.445e-14
 3.3060  8.618e-14
 3.3110  8.651e-14
 3.3160  8.626e-14
 3.3210  8.593e-14
 3.3260  8.552e-14
 3.3310  8.511e-14
 3.3360  8.462e-14
 3.3410  8.420e-14
 3.3460  8.371e-14
 3.3510  8.321e-14
 3.3560  8.272e-14
 3.3610  8.228e-14
 3.3660  8.195e-14
 3.3710  8.146e-14
 3.3760  8.099e-14
 3.3810  8.051e-14
 3.3860  8.010e-14
 3.3910  7.965e-14
 3.3960  7.919e-14
 3.4010  7.873e-14
 3.4060  7.825e-14
 3.4110  7.784e-14
 3.4160  7.738e-14
 3.4210  7.695e-14
 3.4260  7.650e-14
 3.4310  7.605e-14
 3.4360  7.578e-14
 3.4410  7.535e-14
 3.4460  7.492e-14
 3.4510  7.449e-14
 3.4560  7.406e-14
 3.4610  7.363e-14
 3.4660  7.320e-14
 3.4710  7.279e-14
 3.4760  7.237e-14
 3.4810  7.209e-14
 3.4860  7.168e-14
 3.4910  7.126e-14
 3.4960  7.085e-14
 3.5010  7.045e-14
 3.5060  7.004e-14
 3.5110  6.964e-14
 3.5160  6.937e-14
 3.5210  6.896e-14
 3.5260  6.857e-14
 3.5310  6.819e-14
 3.5360  6.779e-14
 3.5410  6.752e-14
 3.5460  6.712e-14
 3.5510  6.674e-14
 3.5560  6.637e-14
 3.5610  6.598e-14
 3.5660  6.572e-14
 3.5710  6.533e-14
 3.5760  6.495e-14
 3.5810  6.459e-14
 3.5860  6.424e-14
 3.5910  6.399e-14
 3.5960  6.361e-14
 3.6010  6.321e-14
 3.6060  6.282e-14
 3.6110  6.259e-14
 3.6160  6.227e-14
 3.6210  6.193e-14
 3.6260  6.158e-14
 3.6310  6.133e-14
 3.6360  6.095e-14
 3.6410  6.053e-14
 3.6460  6.015e-14
 3.6510  5.996e-14
 3.6560  5.968e-14
 3.6610  5.935e-14
 3.6660  5.903e-14
 3.6710  5.879e-14
 3.6760  5.843e-14
 3.6810  5.802e-14
 3.6860  5.774e-14
 3.6910  5.726e-14
 3.6960  5.700e-14
 3.7010  5.686e-14
 3.7060  5.657e-14
 3.7110  5.624e-14
 3.7160  5.584e-14
 3.7210  5.548e-14
 3.7260  5.486e-14
 3.7310  5.365e-14
 3.7360  5.192e-14
 3.7410  4.968e-14
 3.7460  5.242e-14
 3.7510  5.291e-14
 3.7560  5.326e-14
 3.7610  5.324e-14
 3.7660  5.314e-14
 3.7710  5.293e-14
 3.7760  5.276e-14
 3.7810  5.249e-14
 3.7860  5.220e-14
 3.7910  5.200e-14
 3.7960  5.168e-14
 3.8010  5.133e-14
 3.8060  5.107e-14
 3.8110  5.055e-14
 3.8160  5.008e-14
 3.8210  4.974e-14
 3.8260  4.983e-14
 3.8310  4.978e-14
 3.8360  4.961e-14
 3.8410  4.946e-14
 3.8460  4.920e-14
 3.8510  4.894e-14
 3.8560  4.875e-14
 3.8610  4.848e-14
 3.8660  4.827e-14
 3.8710  4.799e-14
 3.8760  4.771e-14
 3.8810  4.747e-14
 3.8860  4.718e-14
 3.8910  4.693e-14
 3.8960  4.644e-14
 3.9010  4.599e-14
 3.9060  4.511e-14
 3.9110  4.524e-14
 3.9160  4.552e-14
 3.9210  4.549e-14
 3.9260  4.539e-14
 3.9310  4.519e-14
 3.9360  4.504e-14
 3.9410  4.479e-14
 3.9460  4.461e-14
 3.9510  4.438e-14
 3.9560  4.420e-14
 3.9610  4.396e-14
 3.9660  4.378e-14
 3.9710  4.353e-14
 3.9760  4.335e-14
 3.9810  4.308e-14
 3.9860  4.291e-14
 3.9910  4.261e-14
 3.9960  4.244e-14
 4.0010  4.211e-14
 4.0060  4.182e-14
 4.0110  4.119e-14
 4.0160  4.049e-14
 4.0210  3.980e-14
 4.0260  4.031e-14
 4.0310  4.058e-14
 4.0360  4.048e-14
 4.0410  3.999e-14
 4.0460  3.909e-14
 4.0510  3.674e-14
 4.0560  3.858e-14
 4.0610  3.931e-14
 4.0660  3.950e-14
 4.0710  3.945e-14
 4.0760  3.930e-14
 4.0810  3.917e-14
 4.0860  3.896e-14
 4.0910  3.884e-14
 4.0960  3.869e-14
 4.1010  3.847e-14
 4.1060  3.832e-14
 4.1110  3.810e-14
 4.1160  3.795e-14
 4.1210  3.773e-14
 4.1260  3.758e-14
 4.1310  3.743e-14
 4.1360  3.719e-14
 4.1410  3.702e-14
 4.1460  3.675e-14
 4.1510  3.653e-14
 4.1560  3.625e-14
 4.1610  3.558e-14
 4.1660  3.476e-14
 4.1710  3.404e-14
 4.1760  3.478e-14
 4.1810  3.514e-14
 4.1860  3.528e-14
 4.1910  3.525e-14
 4.1960  3.512e-14
 4.2010  3.500e-14
 4.2060  3.489e-14
 4.2110  3.471e-14
 4.2160  3.459e-14
 4.2210  3.446e-14
 4.2260  3.427e-14
 4.2310  3.413e-14
 4.2360  3.400e-14
 4.2410  3.381e-14
 4.2460  3.368e-14
 4.2510  3.355e-14
 4.2560  3.336e-14
 4.2610  3.323e-14
 4.2660  3.304e-14
 4.2710  3.291e-14
 4.2760  3.277e-14
 4.2810  3.265e-14
 4.2860  3.246e-14
 4.2910  3.234e-14
 4.2960  3.220e-14
 4.3010  3.202e-14
 4.3060  3.189e-14
 4.3110  3.177e-14
 4.3160  3.158e-14
 4.3210  3.145e-14
 4.3260  3.132e-14
 4.3310  3.113e-14
 4.3360  3.100e-14
 4.3410  3.086e-14
 4.3460  3.065e-14
 4.3510  3.048e-14
 4.3560  3.028e-14
 4.3610  3.003e-14
 4.3660  2.941e-14
 4.3710  2.863e-14
 4.3760  2.780e-14
 4.3810  2.849e-14
 4.3860  2.913e-14
 4.3910  2.924e-14
 4.3960  2.925e-14
 4.4010  2.917e-14
 4.4060  2.910e-14
 4.4110  2.900e-14
 4.4160  2.891e-14
 4.4210  2.875e-14
 4.4260  2.864e-14
 4.4310  2.853e-14
 4.4360  2.843e-14
 4.4410  2.826e-14
 4.4460  2.816e-14
 4.4510  2.805e-14
 4.4560  2.794e-14
 4.4610  2.778e-14
 4.4660  2.767e-14
 4.4710  2.755e-14
 4.4760  2.745e-14
 4.4810  2.734e-14
 4.4860  2.718e-14
 4.4910  2.708e-14
 4.4960  2.697e-14
 4.5010  2.686e-14
 4.5060  2.671e-14
 4.5110  2.661e-14
 4.5160  2.651e-14
 4.5210  2.640e-14
 4.5260  2.629e-14
 4.5310  2.614e-14
 4.5360  2.604e-14
 4.5410  2.594e-14
 4.5460  2.584e-14
 4.5510  2.574e-14
 4.5560  2.558e-14
 4.5610  2.548e-14
 4.5660  2.538e-14
 4.5710  2.529e-14
 4.5760  2.519e-14
 4.5810  2.509e-14
 4.5860  2.493e-14
 4.5910  2.482e-14
 4.5960  2.473e-14
 4.6010  2.463e-14
 4.6060  2.454e-14
 4.6110  2.443e-14
 4.6160  2.426e-14
 4.6210  2.415e-14
 4.6260  2.402e-14
 4.6310  2.388e-14
 4.6360  2.370e-14
 4.6410  2.345e-14
 4.6460  2.303e-14
 4.6510  2.148e-14
 4.6560  2.218e-14
 4.6610  2.262e-14
 4.6660  2.230e-14
 4.6710  2.148e-14
 4.6760  2.194e-14
 4.6810  2.244e-14
 4.6860  2.266e-14
 4.6910  2.268e-14
 4.6960  2.265e-14
 4.7010  2.260e-14
 4.7060  2.253e-14
 4.7110  2.246e-14
 4.7160  2.238e-14
 4.7210  2.230e-14
 4.7260  2.222e-14
 4.7310  2.209e-14
 4.7360  2.201e-14
 4.7410  2.193e-14
 4.7460  2.185e-14
 4.7510  2.176e-14
 4.7560  2.168e-14
 4.7610  2.159e-14
 4.7660  2.152e-14
 4.7710  2.143e-14
 4.7760  2.134e-14
 4.7810  2.122e-14
 4.7860  2.114e-14
 4.7910  2.105e-14
 4.7960  2.098e-14
 4.8010  2.090e-14
 4.8060  2.082e-14
 4.8110  2.073e-14
 4.8160  2.065e-14
 4.8210  2.058e-14
 4.8260  2.049e-14
 4.8310  2.041e-14
 4.8360  2.033e-14
 4.8410  2.025e-14
 4.8460  2.017e-14
 4.8510  2.010e-14
 4.8560  1.998e-14
 4.8610  1.990e-14
 4.8660  1.983e-14
 4.8710  1.974e-14
 4.8760  1.967e-14
 4.8810  1.960e-14
 4.8860  1.951e-14
 4.8910  1.944e-14
 4.8960  1.936e-14
 4.9010  1.929e-14
 4.9060  1.922e-14
 4.9110  1.914e-14
 4.9160  1.906e-14
 4.9210  1.898e-14
 4.9260  1.892e-14
 4.9310  1.884e-14
 4.9360  1.877e-14
 4.9410  1.870e-14
 4.9460  1.862e-14
 4.9510  1.855e-14
 4.9560  1.848e-14
 4.9610  1.841e-14
 4.9660  1.833e-14
 4.9710  1.826e-14
 4.9760  1.818e-14
 4.9810  1.812e-14
 4.9860  1.805e-14
 4.9910  1.798e-14
 4.9960  1.791e-14
 5.0010  1.784e-14
 5.0060  1.776e-14
 5.0110  1.770e-14
 5.0160  1.762e-14
 5.0210  1.755e-14
 5.0260  1.748e-14
 5.0310  1.742e-14
 5.0360  1.735e-14
 5.0410  1.729e-14
 5.0460  1.722e-14
 5.0510  1.715e-14
 5.0560  1.708e-14
 5.0610  1.701e-14
 5.0660  1.695e-14
 5.0710  1.687e-14
 5.0760  1.680e-14
 5.0810  1.673e-14
 5.0860  1.665e-14
 5.0910  1.658e-14
 5.0960  1.650e-14
 5.1010  1.641e-14
 5.1060  1.630e-14
 5.1110  1.616e-14
 5.1160  1.606e-14
 5.1210  1.574e-14
 5.1260  1.510e-14
 5.1310  1.513e-14
 5.1360  1.560e-14
 5.1410  1.577e-14
 5.1460  1.582e-14
 5.1510  1.580e-14
 5.1560  1.577e-14
 5.1610  1.572e-14
 5.1660  1.566e-14
 5.1710  1.560e-14
 5.1760  1.555e-14
 5.1810  1.550e-14
 5.1860  1.546e-14
 5.1910  1.543e-14
 5.1960  1.537e-14
 5.2010  1.531e-14
 5.2060  1.526e-14
 5.2110  1.520e-14
 5.2160  1.514e-14
 5.2210  1.508e-14
 5.2260  1.502e-14
 5.2310  1.496e-14
 5.2360  1.489e-14
 5.2410  1.484e-14
 5.2460  1.480e-14
 5.2510  1.474e-14
 5.2560  1.466e-14
 5.2610  1.460e-14
 5.2660  1.454e-14
 5.2710  1.450e-14
 5.2760  1.446e-14
 5.2810  1.441e-14
 5.2860  1.436e-14
 5.2910  1.433e-14
 5.2960  1.428e-14
 5.3010  1.422e-14
 5.3060  1.417e-14
 5.3110  1.411e-14
 5.3160  1.406e-14
 5.3210  1.400e-14
 5.3260  1.395e-14
 5.3310  1.392e-14
 5.3360  1.386e-14
 5.3410  1.381e-14
 5.3460  1.376e-14
 5.3510  1.370e-14
 5.3560  1.363e-14
 5.3610  1.357e-14
 5.3660  1.353e-14
 5.3710  1.346e-14
 5.3760  1.339e-14
 5.3810  1.334e-14
 5.3860  1.330e-14
 5.3910  1.327e-14
 5.3960  1.324e-14
 5.4010  1.321e-14
 5.4060  1.317e-14
 5.4110  1.312e-14
 5.4160  1.307e-14
 5.4210  1.302e-14
 5.4260  1.297e-14
 5.4310  1.295e-14
 5.4360  1.290e-14
 5.4410  1.285e-14
 5.4460  1.280e-14
 5.4510  1.275e-14
 5.4560  1.270e-14
 5.4610  1.268e-14
 5.4660  1.263e-14
 5.4710  1.258e-14
 5.4760  1.253e-14
 5.4810  1.247e-14
 5.4860  1.242e-14
 5.4910  1.240e-14
 5.4960  1.235e-14
 5.5010  1.229e-14
 5.5060  1.222e-14
 5.5110  1.215e-14
 5.5160  1.211e-14
 5.5210  1.202e-14
 5.5260  1.196e-14
 5.5310  1.196e-14
 5.5360  1.194e-14
 5.5410  1.193e-14
 5.5460  1.190e-14
 5.5510  1.187e-14
 5.5560  1.183e-14
 5.5610  1.179e-14
 5.5660  1.176e-14
 5.5710  1.172e-14
 5.5760  1.167e-14
 5.5810  1.163e-14
 5.5860  1.159e-14
 5.5910  1.156e-14
 5.5960  1.151e-14
 5.6010  1.147e-14
 5.6060  1.143e-14
 5.6110  1.141e-14
 5.6160  1.136e-14
 5.6210  1.131e-14
 5.6260  1.127e-14
 5.6310  1.122e-14
 5.6360  1.121e-14
 5.6410  1.116e-14
 5.6460  1.112e-14
 5.6510  1.107e-14
 5.6560  1.105e-14
 5.6610  1.100e-14
 5.6660  1.096e-14
 5.6710  1.091e-14
 5.6760  1.089e-14
 5.6810  1.084e-14
 5.6860  1.079e-14
 5.6910  1.072e-14
 5.6960  1.069e-14
 5.7010  1.061e-14
 5.7060  1.049e-14
 5.7110  1.042e-14
 5.7160  1.044e-14
 5.7210  1.047e-14
 5.7260  1.047e-14
 5.7310  1.045e-14
 5.7360  1.043e-14
 5.7410  1.041e-14
 5.7460  1.037e-14
 5.7510  1.033e-14
 5.7560  1.031e-14
 5.7610  1.028e-14
 5.7660  1.023e-14
 5.7710  1.022e-14
 5.7760  1.018e-14
 5.7810  1.014e-14
 5.7860  1.009e-14
 5.7910  1.008e-14
 5.7960  1.004e-14
 5.8010  9.995e-15
 5.8060  9.979e-15
 5.8110  9.938e-15
 5.8160  9.905e-15
 5.8210  9.864e-15
 5.8260  9.839e-15
 5.8310  9.806e-15
 5.8360  9.765e-15
 5.8410  9.740e-15
 5.8460  9.707e-15
 5.8510  9.666e-15
 5.8560  9.624e-15
 5.8610  9.600e-15
 5.8660  9.558e-15
 5.8710  9.517e-15
 5.8760  9.492e-15
 5.8810  9.435e-15
 5.8860  9.369e-15
 5.8910  9.319e-15
 5.8960  9.187e-15
 5.9010  8.923e-15
 5.9060  8.701e-15
 5.9110  8.775e-15
 5.9160  9.031e-15
 5.9210  9.105e-15
 5.9260  9.113e-15
 5.9310  9.097e-15
 5.9360  9.055e-15
 5.9410  9.022e-15
 5.9460  8.932e-15
 5.9510  8.791e-15
 5.9560  8.742e-15
 5.9610  8.791e-15
 5.9660  8.849e-15
 5.9710  8.857e-15
 5.9760  8.857e-15
 5.9810  8.841e-15
 5.9860  8.833e-15
 5.9910  8.808e-15
 5.9960  8.775e-15
 6.0010  8.758e-15
 6.0060  8.734e-15
 6.0110  8.701e-15
 6.0160  8.684e-15
 6.0210  8.651e-15
 6.0260  8.618e-15
 6.0310  8.602e-15
 6.0360  8.569e-15
 6.0410  8.536e-15
 6.0460  8.519e-15
 6.0510  8.486e-15
 6.0560  8.470e-15
 6.0610  8.437e-15
 6.0660  8.404e-15
 6.0710  8.387e-15
 6.0760  8.354e-15
 6.0810  8.321e-15
 6.0860  8.305e-15
 6.0910  8.272e-15
 6.0960  8.238e-15
 6.1010  8.221e-15
 6.1060  8.189e-15
 6.1110  8.174e-15
 6.1160  8.142e-15
 6.1210  8.110e-15
 6.1260  8.094e-15
 6.1310  8.062e-15
 6.1360  8.031e-15
 6.1410  8.015e-15
 6.1460  7.983e-15
 6.1510  7.968e-15
 6.1560  7.936e-15
 6.1610  7.905e-15
 6.1660  7.890e-15
 6.1710  7.859e-15
 6.1760  7.827e-15
 6.1810  7.812e-15
 6.1860  7.781e-15
 6.1910  7.766e-15
 6.1960  7.735e-15
 6.2010  7.704e-15
 6.2060  7.689e-15
 6.2110  7.658e-15
 6.2160  7.643e-15
 6.2210  7.612e-15
 6.2260  7.582e-15
 6.2310  7.566e-15
 6.2360  7.535e-15
 6.2410  7.518e-15
 6.2460  7.486e-15
 6.2510  7.451e-15
 6.2560  7.433e-15
 6.2610  7.393e-15
 6.2660  7.370e-15
 6.2710  7.315e-15
 6.2760  7.237e-15
 6.2810  7.182e-15
 6.2860  7.021e-15
 6.2910  6.958e-15
 6.2960  7.043e-15
 6.3010  7.090e-15
 6.3060  7.135e-15
 6.3110  7.144e-15
 6.3160  7.141e-15
 6.3210  7.128e-15
 6.3260  7.118e-15
 6.3310  7.096e-15
 6.3360  7.084e-15
 6.3410  7.059e-15
 6.3460  7.034e-15
 6.3510  7.021e-15
 6.3560  6.994e-15
 6.3610  6.981e-15
 6.3660  6.955e-15
 6.3710  6.942e-15
 6.3760  6.914e-15
 6.3810  6.888e-15
 6.3860  6.874e-15
 6.3910  6.848e-15
 6.3960  6.834e-15
 6.4010  6.807e-15
 6.4060  6.794e-15
 6.4110  6.768e-15
 6.4160  6.754e-15
 6.4210  6.728e-15
 6.4260  6.702e-15
 6.4310  6.688e-15
 6.4360  6.662e-15
 6.4410  6.649e-15
 6.4460  6.622e-15
 6.4510  6.610e-15
 6.4560  6.584e-15
 6.4610  6.571e-15
 6.4660  6.545e-15
 6.4710  6.532e-15
 6.4760  6.507e-15
 6.4810  6.481e-15
 6.4860  6.467e-15
 6.4910  6.443e-15
 6.4960  6.430e-15
 6.5010  6.405e-15
 6.5060  6.392e-15
 6.5110  6.368e-15
 6.5160  6.355e-15
 6.5210  6.330e-15
 6.5260  6.317e-15
 6.5310  6.293e-15
 6.5360  6.280e-15
 6.5410  6.255e-15
 6.5460  6.243e-15
 6.5510  6.218e-15
 6.5560  6.206e-15
 6.5610  6.181e-15
 6.5660  6.156e-15
 6.5710  6.145e-15
 6.5760  6.121e-15
 6.5810  6.109e-15
 6.5860  6.086e-15
 6.5910  6.073e-15
 6.5960  6.049e-15
 6.6010  6.038e-15
 6.6060  6.014e-15
 6.6110  6.001e-15
 6.6160  5.977e-15
 6.6210  5.965e-15
 6.6260  5.942e-15
 6.6310  5.930e-15
 6.6360  5.907e-15
 6.6410  5.896e-15
 6.6460  5.872e-15
 6.6510  5.860e-15
 6.6560  5.837e-15
 6.6610  5.827e-15
 6.6660  5.803e-15
 6.6710  5.792e-15
 6.6760  5.769e-15
 6.6810  5.757e-15
 6.6860  5.734e-15
 6.6910  5.723e-15
 6.6960  5.699e-15
 6.7010  5.687e-15
 6.7060  5.663e-15
 6.7110  5.652e-15
 6.7160  5.627e-15
 6.7210  5.615e-15
 6.7260  5.602e-15
 6.7310  5.576e-15
 6.7360  5.562e-15
 6.7410  5.530e-15
 6.7460  5.512e-15
 6.7510  5.466e-15
 6.7560  5.436e-15
 6.7610  5.345e-15
 6.7660  5.273e-15
 6.7710  5.178e-15
 6.7760  5.234e-15
 6.7810  5.320e-15
 6.7860  5.339e-15
 6.7910  5.352e-15
 6.7960  5.352e-15
 6.8010  5.344e-15
 6.8060  5.337e-15
 6.8110  5.321e-15
 6.8160  5.312e-15
 6.8210  5.302e-15
 6.8260  5.284e-15
 6.8310  5.274e-15
 6.8360  5.255e-15
 6.8410  5.245e-15
 6.8460  5.226e-15
 6.8510  5.216e-15
 6.8560  5.196e-15
 6.8610  5.187e-15
 6.8660  5.167e-15
 6.8710  5.156e-15
 6.8760  5.146e-15
 6.8810  5.126e-15
 6.8860  5.116e-15
 6.8910  5.096e-15
 6.8960  5.086e-15
 6.9010  5.066e-15
 6.9060  5.056e-15
 6.9110  5.036e-15
 6.9160  5.026e-15
 6.9210  5.016e-15
 6.9260  4.995e-15
 6.9310  4.985e-15
 6.9360  4.964e-15
 6.9410  4.954e-15
 6.9460  4.934e-15
 6.9510  4.924e-15
 6.9560  4.915e-15
 6.9610  4.897e-15
 6.9660  4.888e-15
 6.9710  4.870e-15
 6.9760  4.861e-15
 6.9810  4.842e-15
 6.9860  4.832e-15
 6.9910  4.823e-15
 6.9960  4.804e-15
 7.0010  4.795e-15
 7.0060  4.776e-15
 7.0110  4.767e-15
 7.0160  4.748e-15
 7.0210  4.738e-15
 7.0260  4.729e-15
 7.0310  4.710e-15
 7.0360  4.701e-15
 7.0410  4.682e-15
 7.0460  4.673e-15
 7.0510  4.664e-15
 7.0560  4.645e-15
 7.0610  4.635e-15
 7.0660  4.616e-15
 7.0710  4.606e-15
 7.0760  4.586e-15
 7.0810  4.577e-15
 7.0860  4.567e-15
 7.0910  4.548e-15
 7.0960  4.540e-15
 7.1010  4.524e-15
 7.1060  4.515e-15
 7.1110  4.507e-15
 7.1160  4.491e-15
 7.1210  4.482e-15
 7.1260  4.465e-15
 7.1310  4.457e-15
 7.1360  4.448e-15
 7.1410  4.430e-15
 7.1460  4.422e-15
 7.1510  4.405e-15
 7.1560  4.397e-15
 7.1610  4.387e-15
 7.1660  4.370e-15
 7.1710  4.362e-15
 7.1760  4.353e-15
 7.1810  4.336e-15
 7.1860  4.327e-15
 7.1910  4.311e-15
 7.1960  4.302e-15
 7.2010  4.293e-15
 7.2060  4.276e-15
 7.2110  4.268e-15
 7.2160  4.250e-15
 7.2210  4.241e-15
 7.2260  4.233e-15
 7.2310  4.216e-15
 7.2360  4.207e-15
 7.2410  4.199e-15
 7.2460  4.180e-15
 7.2510  4.171e-15
 7.2560  4.152e-15
 7.2610  4.143e-15
 7.2660  4.133e-15
 7.2710  4.116e-15
 7.2760  4.109e-15
 7.2810  4.102e-15
 7.2860  4.089e-15
 7.2910  4.081e-15
 7.2960  4.067e-15
 7.3010  4.060e-15
 7.3060  4.052e-15
 7.3110  4.037e-15
 7.3160  4.029e-15
 7.3210  4.021e-15
 7.3260  4.006e-15
 7.3310  3.997e-15
 7.3360  3.990e-15
 7.3410  3.974e-15
 7.3460  3.966e-15
 7.3510  3.959e-15
 7.3560  3.943e-15
 7.3610  3.935e-15
 7.3660  3.919e-15
 7.3710  3.911e-15
 7.3760  3.903e-15
 7.3810  3.887e-15
 7.3860  3.879e-15
 7.3910  3.871e-15
 7.3960  3.855e-15
 7.4010  3.846e-15
 7.4060  3.837e-15
 7.4110  3.821e-15
 7.4160  3.812e-15
 7.4210  3.802e-15
 7.4260  3.781e-15
 7.4310  3.770e-15
 7.4360  3.757e-15
 7.4410  3.720e-15
 7.4460  3.691e-15
 7.4510  3.646e-15
 7.4560  3.470e-15
 7.4610  3.495e-15
 7.4660  3.582e-15
 7.4710  3.642e-15
 7.4760  3.643e-15
 7.4810  3.634e-15
 7.4860  3.596e-15
 7.4910  3.561e-15
 7.4960  3.503e-15
 7.5010  3.368e-15
 7.5060  3.392e-15
 7.5110  3.445e-15
 7.5160  3.528e-15
 7.5210  3.545e-15
 7.5260  3.555e-15
 7.5310  3.562e-15
 7.5360  3.561e-15
 7.5410  3.559e-15
 7.5460  3.552e-15
 7.5510  3.547e-15
 7.5560  3.542e-15
 7.5610  3.531e-15
 7.5660  3.526e-15
 7.5710  3.519e-15
 7.5760  3.507e-15
 7.5810  3.500e-15
 7.5860  3.493e-15
 7.5910  3.487e-15
 7.5960  3.474e-15
 7.6010  3.468e-15
 7.6060  3.461e-15
 7.6110  3.447e-15
 7.6160  3.441e-15
 7.6210  3.434e-15
 7.6260  3.421e-15
 7.6310  3.414e-15
 7.6360  3.408e-15
 7.6410  3.394e-15
 7.6460  3.388e-15
 7.6510  3.381e-15
 7.6560  3.375e-15
 7.6610  3.362e-15
 7.6660  3.355e-15
 7.6710  3.348e-15
 7.6760  3.335e-15
 7.6810  3.329e-15
 7.6860  3.322e-15
 7.6910  3.309e-15
 7.6960  3.302e-15
 7.7010  3.296e-15
 7.7060  3.289e-15
 7.7110  3.276e-15
 7.7160  3.269e-15
 7.7210  3.263e-15
 7.7260  3.249e-15
 7.7310  3.242e-15
 7.7360  3.235e-15
 7.7410  3.229e-15
 7.7460  3.214e-15
 7.7510  3.206e-15
 7.7560  3.198e-15
 7.7610  3.181e-15
 7.7660  3.171e-15
 7.7710  3.160e-15
 7.7760  3.150e-15
 7.7810  3.136e-15
 7.7860  3.135e-15
 7.7910  3.133e-15
 7.7960  3.127e-15
 7.8010  3.123e-15
 7.8060  3.119e-15
 7.8110  3.114e-15
 7.8160  3.103e-15
 7.8210  3.098e-15
 7.8260  3.093e-15
 7.8310  3.087e-15
 7.8360  3.075e-15
 7.8410  3.070e-15
 7.8460  3.063e-15
 7.8510  3.051e-15
 7.8560  3.046e-15
 7.8610  3.040e-15
 7.8660  3.034e-15
 7.8710  3.022e-15
 7.8760  3.016e-15
 7.8810  3.010e-15
 7.8860  3.004e-15
 7.8910  2.992e-15
 7.8960  2.986e-15
 7.9010  2.980e-15
 7.9060  2.975e-15
 7.9110  2.963e-15
 7.9160  2.957e-15
 7.9210  2.952e-15
 7.9260  2.940e-15
 7.9310  2.934e-15
 7.9360  2.929e-15
 7.9410  2.923e-15
 7.9460  2.911e-15
 7.9510  2.905e-15
 7.9560  2.900e-15
 7.9610  2.894e-15
 7.9660  2.882e-15
 7.9710  2.877e-15
 7.9760  2.871e-15
 7.9810  2.865e-15
 7.9860  2.854e-15
 7.9910  2.849e-15
 7.9960  2.843e-15
 8.0010  2.838e-15
 8.0060  2.826e-15
 8.0110  2.821e-15
 8.0160  2.816e-15
 8.0210  2.810e-15
 8.0260  2.804e-15
 8.0310  2.793e-15
 8.0360  2.788e-15
 8.0410  2.783e-15
 8.0460  2.777e-15
 8.0510  2.765e-15
 8.0560  2.760e-15
 8.0610  2.755e-15
 8.0660  2.749e-15
 8.0710  2.738e-15
 8.0760  2.732e-15
 8.0810  2.727e-15
 8.0860  2.722e-15
 8.0910  2.710e-15
 8.0960  2.704e-15
 8.1010  2.698e-15
 8.1060  2.693e-15
 8.1110  2.687e-15
 8.1160  2.675e-15
 8.1210  2.668e-15
 8.1260  2.661e-15
 8.1310  2.653e-15
 8.1360  2.636e-15
 8.1410  2.624e-15
 8.1460  2.612e-15
 8.1510  2.599e-15
 8.1560  2.591e-15
 8.1610  2.595e-15
 8.1660  2.597e-15
 8.1710  2.596e-15
 8.1760  2.595e-15
 8.1810  2.590e-15
 8.1860  2.585e-15
 8.1910  2.581e-15
 8.1960  2.577e-15
 8.2010  2.573e-15
 8.2060  2.564e-15
 8.2110  2.559e-15
 8.2160  2.554e-15
 8.2210  2.549e-15
 8.2260  2.539e-15
 8.2310  2.534e-15
 8.2360  2.529e-15
 8.2410  2.525e-15
 8.2460  2.520e-15
 8.2510  2.510e-15
 8.2560  2.505e-15
 8.2610  2.501e-15
 8.2660  2.496e-15
 8.2710  2.491e-15
 8.2760  2.481e-15
 8.2810  2.476e-15
 8.2860  2.471e-15
 8.2910  2.466e-15
 8.2960  2.461e-15
 8.3010  2.452e-15
 8.3060  2.447e-15
 8.3110  2.442e-15
 8.3160  2.437e-15
 8.3210  2.432e-15
 8.3260  2.422e-15
 8.3310  2.418e-15
 8.3360  2.413e-15
 8.3410  2.408e-15
 8.3460  2.403e-15
 8.3510  2.394e-15
 8.3560  2.389e-15
 8.3610  2.384e-15
 8.3660  2.380e-15
 8.3710  2.375e-15
 8.3760  2.365e-15
 8.3810  2.361e-15
 8.3860  2.356e-15
 8.3910  2.352e-15
 8.3960  2.347e-15
 8.4010  2.342e-15
 8.4060  2.333e-15
 8.4110  2.328e-15
 8.4160  2.324e-15
 8.4210  2.319e-15
 8.4260  2.315e-15
 8.4310  2.306e-15
 8.4360  2.301e-15
 8.4410  2.297e-15
 8.4460  2.292e-15
 8.4510  2.288e-15
 8.4560  2.283e-15
 8.4610  2.274e-15
 8.4660  2.270e-15
 8.4710  2.265e-15
 8.4760  2.261e-15
 8.4810  2.256e-15
 8.4860  2.247e-15
 8.4910  2.242e-15
 8.4960  2.238e-15
 8.5010  2.233e-15
 8.5060  2.229e-15
 8.5110  2.225e-15
 8.5160  2.216e-15
 8.5210  2.212e-15
 8.5260  2.207e-15
 8.5310  2.203e-15
 8.5360  2.199e-15
 8.5410  2.194e-15
 8.5460  2.185e-15
 8.5510  2.181e-15
 8.5560  2.176e-15
 8.5610  2.172e-15
 8.5660  2.167e-15
 8.5710  2.163e-15
 8.5760  2.154e-15
 8.5810  2.150e-15
 8.5860  2.146e-15
 8.5910  2.141e-15
 8.5960  2.137e-15
 8.6010  2.133e-15
 8.6060  2.128e-15
 8.6110  2.119e-15
 8.6160  2.114e-15
 8.6210  2.109e-15
 8.6260  2.103e-15
 8.6310  2.097e-15
 8.6360  2.091e-15
 8.6410  2.076e-15
 8.6460  2.066e-15
 8.6510  2.054e-15
 8.6560  2.039e-15
 8.6610  2.023e-15
 8.6660  2.020e-15
 8.6710  2.027e-15
 8.6760  2.038e-15
 8.6810  2.039e-15
 8.6860  2.039e-15
 8.6910  2.037e-15
 8.6960  2.035e-15
 8.7010  2.032e-15
 8.7060  2.028e-15
 8.7110  2.020e-15
 8.7160  2.016e-15
 8.7210  2.010e-15
 8.7260  2.004e-15
 8.7310  1.997e-15
 8.7360  1.988e-15
 8.7410  1.978e-15
 8.7460  1.942e-15
 8.7510  1.907e-15
 8.7560  1.870e-15
 8.7610  1.876e-15
 8.7660  1.909e-15
 8.7710  1.931e-15
 8.7760  1.941e-15
 8.7810  1.949e-15
 8.7860  1.949e-15
 8.7910  1.948e-15
 8.7960  1.945e-15
 8.8010  1.943e-15
 8.8060  1.941e-15
 8.8110  1.937e-15
 8.8160  1.931e-15
 8.8210  1.927e-15
 8.8260  1.924e-15
 8.8310  1.920e-15
 8.8360  1.917e-15
 8.8410  1.912e-15
 8.8460  1.909e-15
 8.8510  1.905e-15
 8.8560  1.898e-15
 8.8610  1.894e-15
 8.8660  1.890e-15
 8.8710  1.887e-15
 8.8760  1.883e-15
 8.8810  1.880e-15
 8.8860  1.876e-15
 8.8910  1.872e-15
 8.8960  1.865e-15
 8.9010  1.861e-15
 8.9060  1.858e-15
 8.9110  1.854e-15
 8.9160  1.851e-15
 8.9210  1.847e-15
 8.9260  1.843e-15
 8.9310  1.840e-15
 8.9360  1.836e-15
 8.9410  1.828e-15
 8.9460  1.825e-15
 8.9510  1.822e-15
 8.9560  1.818e-15
 8.9610  1.814e-15
 8.9660  1.811e-15
 8.9710  1.807e-15
 8.9760  1.804e-15
 8.9810  1.800e-15
 8.9860  1.793e-15
 8.9910  1.790e-15
 8.9960  1.785e-15
 9.0010  1.782e-15
 9.0060  1.779e-15
 9.0110  1.775e-15
 9.0160  1.771e-15
 9.0210  1.768e-15
 9.0260  1.764e-15
 9.0310  1.757e-15
 9.0360  1.753e-15
 9.0410  1.750e-15
 9.0460  1.747e-15
 9.0510  1.743e-15
 9.0560  1.740e-15
 9.0610  1.737e-15
 9.0660  1.734e-15
 9.0710  1.729e-15
 9.0760  1.726e-15
 9.0810  1.720e-15
 9.0860  1.716e-15
 9.0910  1.713e-15
 9.0960  1.710e-15
 9.1010  1.706e-15
 9.1060  1.703e-15
 9.1110  1.700e-15
 9.1160  1.696e-15
 9.1210  1.691e-15
 9.1260  1.688e-15
 9.1310  1.685e-15
 9.1360  1.678e-15
 9.1410  1.675e-15
 9.1460  1.672e-15
 9.1510  1.668e-15
 9.1560  1.665e-15
 9.1610  1.662e-15
 9.1660  1.658e-15
 9.1710  1.655e-15
 9.1760  1.652e-15
 9.1810  1.649e-15
 9.1860  1.645e-15
 9.1910  1.642e-15
 9.1960  1.635e-15
 9.2010  1.632e-15
 9.2060  1.630e-15
 9.2110  1.626e-15
 9.2160  1.623e-15
 9.2210  1.620e-15
 9.2260  1.616e-15
 9.2310  1.613e-15
 9.2360  1.610e-15
 9.2410  1.607e-15
 9.2460  1.603e-15
 9.2510  1.600e-15
 9.2560  1.597e-15
 9.2610  1.593e-15
 9.2660  1.590e-15
 9.2710  1.587e-15
 9.2760  1.584e-15
 9.2810  1.581e-15
 9.2860  1.578e-15
 9.2910  1.575e-15
 9.2960  1.572e-15
 9.3010  1.569e-15
 9.3060  1.565e-15
 9.3110  1.562e-15
 9.3160  1.560e-15
 9.3210  1.556e-15
 9.3260  1.546e-15
 9.3310  1.543e-15
 9.3360  1.539e-15
 9.3410  1.536e-15
 9.3460  1.531e-15
 9.3510  1.527e-15
 9.3560  1.522e-15
 9.3610  1.517e-15
 9.3660  1.511e-15
 9.3710  1.503e-15
 9.3760  1.494e-15
 9.3810  1.481e-15
 9.3860  1.465e-15
 9.3910  1.452e-15
 9.3960  1.456e-15
 9.4010  1.468e-15
 9.4060  1.480e-15
 9.4110  1.481e-15
 9.4160  1.481e-15
 9.4210  1.481e-15
 9.4260  1.480e-15
 9.4310  1.478e-15
 9.4360  1.476e-15
 9.4410  1.474e-15
 9.4460  1.471e-15
 9.4510  1.469e-15
 9.4560  1.466e-15
 9.4610  1.463e-15
 9.4660  1.461e-15
 9.4710  1.458e-15
 9.4760  1.455e-15
 9.4810  1.452e-15
 9.4860  1.449e-15
 9.4910  1.443e-15
 9.4960  1.441e-15
 9.5010  1.437e-15
 9.5060  1.434e-15
 9.5110  1.432e-15
 9.5160  1.428e-15
 9.5210  1.426e-15
 9.5260  1.423e-15
 9.5310  1.420e-15
 9.5360  1.418e-15
 9.5410  1.415e-15
 9.5460  1.413e-15
 9.5510  1.410e-15
 9.5560  1.407e-15
 9.5610  1.404e-15
 9.5660  1.402e-15
 9.5710  1.400e-15
 9.5760  1.396e-15
 9.5810  1.394e-15
 9.5860  1.391e-15
 9.5910  1.388e-15
 9.5960  1.386e-15
 9.6010  1.383e-15
 9.6060  1.381e-15
 9.6110  1.377e-15
 9.6160  1.375e-15
 9.6210  1.372e-15
 9.6260  1.369e-15
 9.6310  1.367e-15
 9.6360  1.364e-15
 9.6410  1.362e-15
 9.6460  1.358e-15
 9.6510  1.356e-15
 9.6560  1.353e-15
 9.6610  1.351e-15
 9.6660  1.348e-15
 9.6710  1.345e-15
 9.6760  1.343e-15
 9.6810  1.340e-15
 9.6860  1.338e-15
 9.6910  1.334e-15
 9.6960  1.332e-15
 9.7010  1.329e-15
 9.7060  1.327e-15
 9.7110  1.324e-15
 9.7160  1.321e-15
 9.7210  1.319e-15
 9.7260  1.316e-15
 9.7310  1.314e-15
 9.7360  1.311e-15
 9.7410  1.309e-15
 9.7460  1.306e-15
 9.7510  1.303e-15
 9.7560  1.301e-15
 9.7610  1.298e-15
 9.7660  1.296e-15
 9.7710  1.293e-15
 9.7760  1.290e-15
 9.7810  1.287e-15
 9.7860  1.285e-15
 9.7910  1.282e-15
 9.7960  1.280e-15
 9.8010  1.277e-15
 9.8060  1.272e-15
 9.8110  1.269e-15
 9.8160  1.267e-15
 9.8210  1.263e-15
 9.8260  1.261e-15
 9.8310  1.259e-15
 9.8360  1.255e-15
 9.8410  1.253e-15
 9.8460  1.249e-15
 9.8510  1.247e-15
 9.8560  1.245e-15
 9.8610  1.243e-15
 9.8660  1.241e-15
 9.8710  1.239e-15
 9.8760  1.236e-15
 9.8810  1.235e-15
 9.8860  1.232e-15
 9.8910  1.230e-15
 9.8960  1.227e-15
 9.9010  1.226e-15
 9.9060  1.223e-15
 9.9110  1.221e-15
 9.9160  1.218e-15
 9.9210  1.216e-15
 9.9260  1.213e-15
 9.9310  1.211e-15
 9.9360  1.208e-15
 9.9410  1.206e-15
 9.9460  1.204e-15
 9.9510  1.202e-15
 9.9560  1.199e-15
 9.9610  1.197e-15
 9.9660  1.194e-15
 9.9710  1.192e-15
 9.9760  1.189e-15
 9.9810  1.188e-15
 9.9860  1.185e-15
 9.9910  1.183e-15
 9.9960  1.180e-15
10.0010  1.178e-15
10.0060  1.176e-15
10.0110  1.174e-15
10.0160  1.171e-15
10.0210  1.169e-15
10.0260  1.166e-15
10.0310  1.164e-15
10.0360  1.162e-15
10.0410  1.160e-15
10.0460  1.157e-15
10.0510  1.155e-15
10.0560  1.153e-15
10.0610  1.150e-15
10.0660  1.148e-15
10.0710  1.146e-15
10.0760  1.144e-15
10.0810  1.141e-15
10.0860  1.139e-15
10.0910  1.136e-15
10.0960  1.135e-15
10.1010  1.132e-15
10.1060  1.130e-15
10.1110  1.127e-15
10.1160  1.126e-15
10.1210  1.123e-15
10.1260  1.121e-15
10.1310  1.119e-15
10.1360  1.117e-15
10.1410  1.114e-15
10.1460  1.112e-15
10.1510  1.110e-15
10.1560  1.108e-15
10.1610  1.105e-15
10.1660  1.103e-15
10.1710  1.101e-15
10.1760  1.099e-15
10.1810  1.097e-15
10.1860  1.094e-15
10.1910  1.092e-15
10.1960  1.090e-15
10.2010  1.088e-15
10.2060  1.085e-15
10.2110  1.083e-15
10.2160  1.081e-15
10.2210  1.079e-15
10.2260  1.076e-15
10.2310  1.074e-15
10.2360  1.071e-15
10.2410  1.069e-15
10.2460  1.066e-15
10.2510  1.063e-15
10.2560  1.061e-15
10.2610  1.058e-15
10.2660  1.056e-15
10.2710  1.056e-15
10.2760  1.054e-15
10.2810  1.052e-15
10.2860  1.051e-15
10.2910  1.049e-15
10.2960  1.047e-15
10.3010  1.045e-15
10.3060  1.043e-15
10.3110  1.041e-15
10.3160  1.040e-15
10.3210  1.039e-15
10.3260  1.037e-15
10.3310  1.035e-15
10.3360  1.033e-15
10.3410  1.031e-15
10.3460  1.029e-15
10.3510  1.027e-15
10.3560  1.025e-15
10.3610  1.023e-15
10.3660  1.021e-15
10.3710  1.019e-15
10.3760  1.017e-15
10.3810  1.014e-15
10.3860  1.013e-15
10.3910  1.010e-15
10.3960  1.009e-15
10.4010  1.006e-15
10.4060  1.004e-15
10.4110  1.002e-15
10.4160  1.000e-15
10.4210  9.979e-16
10.4260  9.962e-16
10.4310  9.938e-16
10.4360  9.913e-16
10.4410  9.908e-16
10.4460  9.896e-16
10.4510  9.872e-16
10.4560  9.847e-16
10.4610  9.814e-16
10.4660  9.781e-16
10.4710  9.748e-16
10.4760  9.707e-16
10.4810  9.657e-16
10.4860  9.583e-16
10.4910  9.484e-16
10.4960  9.344e-16
10.5010  9.261e-16
10.5060  9.336e-16
10.5110  9.426e-16
10.5160  9.484e-16
10.5210  9.509e-16
10.5260  9.525e-16
10.5310  9.525e-16
10.5360  9.521e-16
10.5410  9.517e-16
10.5460  9.509e-16
10.5510  9.501e-16
10.5560  9.484e-16
10.5610  9.468e-16
10.5660  9.459e-16
10.5710  9.443e-16
10.5760  9.418e-16
10.5810  9.402e-16
10.5860  9.385e-16
10.5910  9.369e-16
10.5960  9.352e-16
10.6010  9.336e-16
10.6060  9.319e-16
10.6110  9.294e-16
10.6160  9.278e-16
10.6210  9.271e-16
10.6260  9.261e-16
10.6310  9.245e-16
10.6360  9.228e-16
10.6410  9.204e-16
10.6460  9.187e-16
10.6510  9.171e-16
10.6560  9.154e-16
10.6610  9.138e-16
10.6660  9.113e-16
10.6710  9.097e-16
10.6760  9.080e-16
10.6810  9.064e-16
10.6860  9.047e-16
10.6910  9.022e-16
10.6960  9.025e-16
10.7010  9.006e-16
10.7060  8.989e-16
10.7110  8.973e-16
10.7160  8.956e-16
10.7210  8.932e-16
10.7260  8.915e-16
10.7310  8.899e-16
10.7360  8.882e-16
10.7410  8.866e-16
10.7460  8.841e-16
10.7510  8.824e-16
10.7560  8.808e-16
10.7610  8.783e-16
10.7660  8.775e-16
10.7710  8.767e-16
10.7760  8.742e-16
10.7810  8.717e-16
10.7860  8.692e-16
10.7910  8.668e-16
10.7960  8.635e-16
10.8010  8.610e-16
10.8060  8.602e-16
10.8110  8.593e-16
10.8160  8.585e-16
10.8210  8.577e-16
10.8260  8.569e-16
10.8310  8.560e-16
10.8360  8.560e-16
10.8410  8.544e-16
10.8460  8.527e-16
10.8510  8.511e-16
10.8560  8.503e-16
10.8610  8.486e-16
10.8660  8.470e-16
10.8710  8.453e-16
10.8760  8.437e-16
10.8810  8.420e-16
10.8860  8.404e-16
10.8910  8.394e-16
10.8960  8.387e-16
10.9010  8.371e-16
10.9060  8.354e-16
10.9110  8.338e-16
10.9160  8.321e-16
10.9210  8.305e-16
10.9260  8.288e-16
10.9310  8.272e-16
10.9360  8.255e-16
10.9410  8.240e-16
10.9460  8.224e-16
10.9510  8.215e-16
10.9560  8.207e-16
10.9610  8.192e-16
10.9660  8.175e-16
10.9710  8.160e-16
10.9760  8.143e-16
10.9810  8.127e-16
10.9860  8.111e-16
10.9910  8.095e-16
10.9960  8.079e-16
11.0010  8.070e-16
11.0060  8.062e-16
11.0110  8.047e-16
11.0160  8.031e-16
11.0210  8.015e-16
11.0260  7.998e-16
11.0310  7.981e-16
11.0360  7.963e-16
11.0410  7.948e-16
11.0460  7.932e-16
11.0510  7.916e-16
11.0560  7.906e-16
11.0610  7.901e-16
11.0660  7.885e-16
11.0710  7.869e-16
11.0760  7.855e-16
11.0810  7.839e-16
11.0860  7.823e-16
11.0910  7.808e-16
11.0960  7.793e-16
11.1010  7.777e-16
11.1060  7.768e-16
11.1110  7.761e-16
11.1160  7.746e-16
11.1210  7.731e-16
11.1260  7.715e-16
11.1310  7.700e-16
11.1360  7.685e-16
11.1410  7.669e-16
11.1460  7.654e-16
11.1510  7.645e-16
11.1560  7.638e-16
11.1610  7.623e-16
11.1660  7.608e-16
11.1710  7.592e-16
11.1760  7.577e-16
11.1810  7.562e-16
11.1860  7.547e-16
11.1910  7.531e-16
11.1960  7.531e-16
11.2010  7.516e-16
11.2060  7.501e-16
11.2110  7.485e-16
11.2160  7.469e-16
11.2210  7.454e-16
11.2260  7.438e-16
11.2310  7.422e-16
11.2360  7.406e-16
11.2410  7.406e-16
11.2460  7.389e-16
11.2510  7.372e-16
11.2560  7.354e-16
11.2610  7.334e-16
11.2660  7.313e-16
11.2710  7.289e-16
11.2760  7.259e-16
11.2810  7.221e-16
11.2860  7.221e-16
11.2910  7.167e-16
11.2960  7.078e-16
11.3010  6.923e-16
11.3060  6.805e-16
11.3110  6.887e-16
11.3160  7.016e-16
11.3210  7.080e-16
11.3260  7.080e-16
11.3310  7.107e-16
11.3360  7.116e-16
11.3410  7.117e-16
11.3460  7.113e-16
11.3510  7.106e-16
11.3560  7.096e-16
11.3610  7.085e-16
11.3660  7.085e-16
11.3710  7.074e-16
11.3760  7.061e-16
11.3810  7.049e-16
11.3860  7.036e-16
11.3910  7.022e-16
11.3960  7.009e-16
11.4010  6.995e-16
11.4060  6.995e-16
11.4110  6.982e-16
11.4160  6.968e-16
11.4210  6.955e-16
11.4260  6.941e-16
11.4310  6.927e-16
11.4360  6.913e-16
11.4410  6.899e-16
11.4460  6.899e-16
11.4510  6.885e-16
11.4560  6.871e-16
11.4610  6.857e-16
11.4660  6.842e-16
11.4710  6.828e-16
11.4760  6.813e-16
11.4810  6.797e-16
11.4860  6.797e-16
11.4910  6.782e-16
11.4960  6.765e-16
11.5010  6.748e-16
11.5060  6.730e-16
11.5110  6.709e-16
11.5160  6.685e-16
11.5210  6.685e-16
11.5260  6.658e-16
11.5310  6.625e-16
11.5360  6.596e-16
11.5410  6.589e-16
11.5460  6.595e-16
11.5510  6.599e-16
11.5560  6.599e-16
11.5610  6.598e-16
11.5660  6.594e-16
11.5710  6.588e-16
11.5760  6.579e-16
11.5810  6.570e-16
11.5860  6.559e-16
11.5910  6.547e-16
11.5960  6.547e-16
11.6010  6.536e-16
11.6060  6.524e-16
11.6110  6.512e-16
11.6160  6.500e-16
11.6210  6.488e-16
11.6260  6.475e-16
11.6310  6.475e-16
11.6360  6.462e-16
11.6410  6.450e-16
11.6460  6.438e-16
11.6510  6.425e-16
11.6560  6.412e-16
11.6610  6.412e-16
11.6660  6.400e-16
11.6710  6.387e-16
11.6760  6.374e-16
11.6810  6.362e-16
11.6860  6.349e-16
11.6910  6.337e-16
11.6960  6.337e-16
11.7010  6.324e-16
11.7060  6.311e-16
11.7110  6.299e-16
11.7160  6.287e-16
11.7210  6.274e-16
11.7260  6.261e-16
11.7310  6.261e-16
11.7360  6.249e-16
11.7410  6.236e-16
11.7460  6.224e-16
11.7510  6.212e-16
11.7560  6.199e-16
11.7610  6.199e-16
11.7660  6.186e-16
11.7710  6.174e-16
11.7760  6.161e-16
11.7810  6.149e-16
11.7860  6.137e-16
11.7910  6.124e-16
11.7960  6.124e-16
11.8010  6.113e-16
11.8060  6.100e-16
11.8110  6.089e-16
11.8160  6.076e-16
11.8210  6.065e-16
11.8260  6.065e-16
11.8310  6.053e-16
11.8360  6.041e-16
11.8410  6.029e-16
11.8460  6.017e-16
11.8510  6.006e-16
11.8560  5.994e-16
11.8610  5.994e-16
11.8660  5.982e-16
11.8710  5.970e-16
11.8760  5.959e-16
11.8810  5.946e-16
11.8860  5.935e-16
11.8910  5.935e-16
11.8960  5.923e-16
11.9010  5.912e-16
11.9060  5.899e-16
11.9110  5.888e-16
11.9160  5.876e-16
11.9210  5.876e-16
11.9260  5.864e-16
11.9310  5.853e-16
11.9360  5.841e-16
11.9410  5.830e-16
11.9460  5.818e-16
11.9510  5.818e-16
11.9560  5.807e-16
11.9610  5.795e-16
11.9660  5.784e-16
11.9710  5.772e-16
11.9760  5.761e-16
11.9810  5.761e-16
11.9860  5.749e-16
11.9910  5.737e-16
11.9960  5.727e-16
12.0010  5.715e-16
12.0060  5.705e-16
12.0110  5.705e-16
12.0160  5.693e-16
12.0210  5.681e-16
12.0260  5.671e-16
12.0310  5.659e-16
12.0360  5.648e-16
12.0410  5.648e-16
12.0460  5.637e-16
12.0510  5.625e-16
12.0560  5.614e-16
12.0610  5.603e-16
12.0660  5.603e-16
12.0710  5.592e-16
12.0760  5.580e-16
12.0810  5.569e-16
12.0860  5.558e-16
12.0910  5.547e-16
12.0960  5.547e-16
12.1010  5.535e-16
12.1060  5.525e-16
12.1110  5.513e-16
12.1160  5.502e-16
12.1210  5.491e-16
12.1260  5.491e-16
12.1310  5.479e-16
12.1360  5.468e-16
12.1410  5.457e-16
12.1460  5.446e-16
12.1510  5.446e-16
12.1560  5.435e-16
12.1610  5.424e-16
12.1660  5.413e-16
12.1710  5.403e-16
12.1760  5.393e-16
12.1810  5.393e-16
12.1860  5.382e-16
12.1910  5.371e-16
12.1960  5.361e-16
12.2010  5.351e-16
12.2060  5.351e-16
12.2110  5.340e-16
12.2160  5.329e-16
12.2210  5.319e-16
12.2260  5.309e-16
12.2310  5.298e-16
12.2360  5.298e-16
12.2410  5.287e-16
12.2460  5.276e-16
12.2510  5.266e-16
12.2560  5.255e-16
12.2610  5.255e-16
12.2660  5.244e-16
12.2710  5.234e-16
12.2760  5.223e-16
12.2810  5.212e-16
12.2860  5.212e-16
12.2910  5.201e-16
12.2960  5.191e-16
12.3010  5.180e-16
12.3060  5.168e-16
12.3110  5.157e-16
12.3160  5.157e-16
12.3210  5.145e-16
12.3260  5.132e-16
12.3310  5.119e-16
12.3360  5.105e-16
12.3410  5.105e-16
12.3460  5.088e-16
12.3510  5.069e-16
12.3560  5.046e-16
12.3610  5.015e-16
12.3660  5.015e-16
12.3710  4.971e-16
12.3760  4.971e-16
12.3810  4.900e-16
12.3860  4.812e-16
12.3910  4.844e-16
12.3960  4.873e-16
12.4010  4.873e-16
12.4060  4.924e-16
12.4110  4.947e-16
12.4160  4.957e-16
12.4210  4.961e-16
12.4260  4.961e-16
12.4310  4.959e-16
12.4360  4.955e-16
12.4410  4.949e-16
12.4460  4.949e-16
12.4510  4.942e-16
12.4560  4.934e-16
12.4610  4.925e-16
12.4660  4.917e-16
12.4710  4.911e-16
12.4760  4.908e-16
12.4810  4.898e-16
12.4860  4.889e-16
12.4910  4.879e-16
12.4960  4.869e-16
12.5010  4.859e-16
12.5060  4.855e-16
12.5110  4.848e-16
12.5160  4.839e-16
12.5210  4.833e-16
12.5260  4.828e-16
12.5310  4.816e-16
12.5360  4.805e-16
12.5410  4.792e-16
12.5460  4.779e-16
12.5510  4.764e-16
12.5560  4.746e-16
12.5610  4.725e-16
12.5660  4.712e-16
12.5710  4.698e-16
12.5760  4.662e-16
12.5810  4.627e-16
12.5860  4.625e-16
12.5910  4.623e-16
12.5960  4.641e-16
12.6010  4.655e-16
12.6060  4.660e-16
12.6110  4.661e-16
12.6160  4.661e-16
12.6210  4.660e-16
12.6260  4.656e-16
12.6310  4.651e-16
12.6360  4.648e-16
12.6410  4.645e-16
12.6460  4.637e-16
12.6510  4.630e-16
12.6560  4.622e-16
12.6610  4.618e-16
12.6660  4.613e-16
12.6710  4.605e-16
12.6760  4.597e-16
12.6810  4.593e-16
12.6860  4.589e-16
12.6910  4.580e-16
12.6960  4.571e-16
12.7010  4.562e-16
12.7060  4.558e-16
12.7110  4.553e-16
12.7160  4.544e-16
12.7210  4.536e-16
12.7260  4.527e-16
12.7310  4.522e-16
12.7360  4.518e-16
12.7410  4.509e-16
12.7460  4.500e-16
12.7510  4.496e-16
12.7560  4.491e-16
12.7610  4.482e-16
12.7660  4.473e-16
12.7710  4.465e-16
12.7760  4.460e-16
12.7810  4.456e-16
12.7860  4.447e-16
12.7910  4.439e-16
12.7960  4.434e-16
12.8010  4.430e-16
12.8060  4.420e-16
12.8110  4.412e-16
12.8160  4.403e-16
12.8210  4.399e-16
12.8260  4.394e-16
12.8310  4.386e-16
12.8360  4.377e-16
12.8410  4.373e-16
12.8460  4.368e-16
12.8510  4.359e-16
12.8560  4.351e-16
12.8610  4.342e-16
12.8660  4.338e-16
12.8710  4.334e-16
12.8760  4.325e-16
12.8810  4.317e-16
12.8860  4.312e-16
12.8910  4.308e-16
12.8960  4.299e-16
12.9010  4.291e-16
12.9060  4.287e-16
12.9110  4.283e-16
12.9160  4.274e-16
12.9210  4.265e-16
12.9260  4.257e-16
12.9310  4.253e-16
12.9360  4.248e-16
12.9410  4.240e-16
12.9460  4.232e-16
12.9510  4.227e-16
12.9560  4.223e-16
12.9610  4.215e-16
12.9660  4.206e-16
12.9710  4.202e-16
12.9760  4.198e-16
12.9810  4.190e-16
12.9860  4.181e-16
12.9910  4.173e-16
12.9960  4.169e-16
13.0010  4.165e-16
13.0060  4.157e-16
13.0110  4.148e-16
13.0160  4.144e-16
13.0210  4.140e-16
13.0260  4.132e-16
13.0310  4.124e-16
13.0360  4.119e-16
13.0410  4.115e-16
13.0460  4.107e-16
13.0510  4.099e-16
13.0560  4.095e-16
13.0610  4.091e-16
13.0660  4.082e-16
13.0710  4.074e-16
13.0760  4.066e-16
13.0810  4.062e-16
13.0860  4.058e-16
13.0910  4.049e-16
13.0960  4.042e-16
13.1010  4.038e-16
13.1060  4.034e-16
13.1110  4.025e-16
13.1160  4.017e-16
13.1210  4.013e-16
13.1260  4.008e-16
13.1310  3.999e-16
13.1360  3.991e-16
13.1410  3.987e-16
13.1460  3.983e-16
13.1510  3.974e-16
13.1560  3.965e-16
13.1610  3.961e-16
13.1660  3.956e-16
13.1710  3.948e-16
13.1760  3.939e-16
13.1810  3.934e-16
13.1860  3.930e-16
13.1910  3.922e-16
13.1960  3.916e-16
13.2010  3.912e-16
13.2060  3.909e-16
13.2110  3.903e-16
13.2160  3.895e-16
13.2210  3.888e-16
13.2260  3.885e-16
13.2310  3.881e-16
13.2360  3.874e-16
13.2410  3.866e-16
13.2460  3.863e-16
13.2510  3.859e-16
13.2560  3.851e-16
13.2610  3.844e-16
13.2660  3.840e-16
13.2710  3.837e-16
13.2760  3.829e-16
13.2810  3.822e-16
13.2860  3.818e-16
13.2910  3.814e-16
13.2960  3.807e-16
13.3010  3.799e-16
13.3060  3.796e-16
13.3110  3.792e-16
13.3160  3.785e-16
13.3210  3.777e-16
13.3260  3.773e-16
13.3310  3.770e-16
13.3360  3.761e-16
13.3410  3.758e-16
13.3460  3.754e-16
13.3510  3.747e-16
13.3560  3.739e-16
13.3610  3.736e-16
13.3660  3.732e-16
13.3710  3.724e-16
13.3760  3.717e-16
13.3810  3.713e-16
13.3860  3.710e-16
13.3910  3.702e-16
13.3960  3.695e-16
13.4010  3.691e-16
13.4060  3.688e-16
13.4110  3.681e-16
13.4160  3.673e-16
13.4210  3.670e-16
13.4260  3.666e-16
13.4310  3.658e-16
13.4360  3.651e-16
13.4410  3.647e-16
13.4460  3.644e-16
13.4510  3.637e-16
13.4560  3.630e-16
13.4610  3.626e-16
13.4660  3.622e-16
13.4710  3.615e-16
13.4760  3.608e-16
13.4810  3.604e-16
13.4860  3.601e-16
13.4910  3.593e-16
13.4960  3.587e-16
13.5010  3.583e-16
13.5060  3.579e-16
13.5110  3.572e-16
13.5160  3.569e-16
13.5210  3.565e-16
13.5260  3.558e-16
13.5310  3.551e-16
13.5360  3.547e-16
13.5410  3.544e-16
13.5460  3.536e-16
13.5510  3.530e-16
13.5560  3.526e-16
13.5610  3.522e-16
13.5660  3.516e-16
13.5710  3.508e-16
13.5760  3.505e-16
13.5810  3.502e-16
13.5860  3.494e-16
13.5910  3.491e-16
13.5960  3.488e-16
13.6010  3.481e-16
13.6060  3.474e-16
13.6110  3.470e-16
13.6160  3.467e-16
13.6210  3.460e-16
13.6260  3.453e-16
13.6310  3.450e-16
13.6360  3.446e-16
13.6410  3.439e-16
13.6460  3.432e-16
13.6510  3.429e-16
13.6560  3.426e-16
13.6610  3.418e-16
13.6660  3.415e-16
13.6710  3.412e-16
13.6760  3.405e-16
13.6810  3.399e-16
13.6860  3.395e-16
13.6910  3.391e-16
13.6960  3.385e-16
13.7010  3.378e-16
13.7060  3.375e-16
13.7110  3.371e-16
13.7160  3.365e-16
13.7210  3.362e-16
13.7260  3.358e-16
13.7310  3.351e-16
13.7360  3.344e-16
13.7410  3.341e-16
13.7460  3.338e-16
13.7510  3.331e-16
13.7560  3.328e-16
13.7610  3.324e-16
13.7660  3.318e-16
13.7710  3.311e-16
13.7760  3.308e-16
13.7810  3.305e-16
13.7860  3.298e-16
13.7910  3.291e-16
13.7960  3.288e-16
13.8010  3.285e-16
13.8060  3.278e-16
13.8110  3.275e-16
13.8160  3.272e-16
13.8210  3.265e-16
13.8260  3.258e-16
13.8310  3.255e-16
13.8360  3.252e-16
13.8410  3.245e-16
13.8460  3.242e-16
13.8510  3.239e-16
13.8560  3.232e-16
13.8610  3.225e-16
13.8660  3.222e-16
13.8710  3.219e-16
13.8760  3.212e-16
13.8810  3.205e-16
13.8860  3.202e-16
13.8910  3.198e-16
13.8960  3.191e-16
13.9010  3.187e-16
13.9060  3.184e-16
13.9110  3.177e-16
13.9160  3.169e-16
13.9210  3.164e-16
13.9260  3.160e-16
13.9310  3.152e-16
13.9360  3.148e-16
13.9410  3.145e-16
13.9460  3.140e-16
13.9510  3.136e-16
13.9560  3.133e-16
13.9610  3.131e-16
13.9660  3.126e-16
13.9710  3.123e-16
13.9760  3.121e-16
13.9810  3.116e-16
13.9860  3.110e-16
13.9910  3.107e-16
13.9960  3.104e-16
14.0010  3.101e-16
14.0060  3.098e-16
14.0110  3.093e-16
14.0160  3.087e-16
14.0210  3.084e-16
14.0260  3.081e-16
14.0310  3.075e-16
14.0360  3.069e-16
14.0410  3.065e-16
14.0460  3.062e-16
14.0510  3.056e-16
14.0560  3.053e-16
14.0610  3.050e-16
14.0660  3.044e-16
14.0710  3.037e-16
14.0760  3.035e-16
14.0810  3.032e-16
14.0860  3.025e-16
14.0910  3.022e-16
14.0960  3.018e-16
14.1010  3.012e-16
14.1060  3.004e-16
14.1110  3.001e-16
14.1160  2.997e-16
14.1210  2.990e-16
14.1260  2.985e-16
14.1310  2.981e-16
14.1360  2.971e-16
14.1410  2.966e-16
14.1460  2.961e-16
14.1510  2.948e-16
14.1560  2.931e-16
14.1610  2.919e-16
14.1660  2.908e-16
14.1710  2.875e-16
14.1760  2.861e-16
14.1810  2.847e-16
14.1860  2.854e-16
14.1910  2.866e-16
14.1960  2.877e-16
14.2010  2.891e-16
14.2060  2.898e-16
14.2110  2.899e-16
14.2160  2.900e-16
14.2210  2.900e-16
14.2260  2.899e-16
14.2310  2.898e-16
14.2360  2.895e-16
14.2410  2.893e-16
14.2460  2.891e-16
14.2510  2.886e-16
14.2560  2.882e-16
14.2610  2.880e-16
14.2660  2.877e-16
14.2710  2.872e-16
14.2760  2.869e-16
14.2810  2.867e-16
14.2860  2.861e-16
14.2910  2.858e-16
14.2960  2.856e-16
14.3010  2.850e-16
14.3060  2.844e-16
14.3110  2.842e-16
14.3160  2.839e-16
14.3210  2.834e-16
14.3260  2.831e-16
14.3310  2.828e-16
14.3360  2.823e-16
14.3410  2.820e-16
14.3460  2.817e-16
14.3510  2.811e-16
14.3560  2.806e-16
14.3610  2.804e-16
14.3660  2.801e-16
14.3710  2.795e-16
14.3760  2.792e-16
14.3810  2.790e-16
14.3860  2.784e-16
14.3910  2.781e-16
14.3960  2.778e-16
14.4010  2.773e-16
14.4060  2.770e-16
14.4110  2.768e-16
14.4160  2.762e-16
14.4210  2.757e-16
14.4260  2.754e-16
14.4310  2.751e-16
14.4360  2.745e-16
14.4410  2.743e-16
14.4460  2.741e-16
14.4510  2.735e-16
14.4560  2.732e-16
14.4610  2.729e-16
14.4660  2.724e-16
14.4710  2.721e-16
14.4760  2.718e-16
14.4810  2.713e-16
14.4860  2.710e-16
14.4910  2.708e-16
14.4960  2.703e-16
14.5010  2.697e-16
14.5060  2.694e-16
14.5110  2.692e-16
14.5160  2.686e-16
14.5210  2.684e-16
14.5260  2.681e-16
14.5310  2.675e-16
14.5360  2.673e-16
14.5410  2.670e-16
14.5460  2.665e-16
14.5510  2.662e-16
14.5560  2.660e-16
14.5610  2.654e-16
14.5660  2.651e-16
14.5710  2.649e-16
14.5760  2.644e-16
14.5810  2.641e-16
14.5860  2.638e-16
14.5910  2.633e-16
14.5960  2.628e-16
14.6010  2.625e-16
14.6060  2.623e-16
14.6110  2.618e-16
14.6160  2.615e-16
14.6210  2.612e-16
14.6260  2.607e-16
14.6310  2.604e-16
14.6360  2.602e-16
14.6410  2.596e-16
14.6460  2.594e-16
14.6510  2.591e-16
14.6560  2.586e-16
14.6610  2.583e-16
14.6660  2.581e-16
14.6710  2.576e-16
14.6760  2.573e-16
14.6810  2.571e-16
14.6860  2.565e-16
14.6910  2.562e-16
14.6960  2.560e-16
14.7010  2.555e-16
14.7060  2.552e-16
14.7110  2.550e-16
14.7160  2.544e-16
14.7210  2.539e-16
14.7260  2.537e-16
14.7310  2.534e-16
14.7360  2.529e-16
14.7410  2.527e-16
14.7460  2.524e-16
14.7510  2.519e-16
14.7560  2.517e-16
14.7610  2.515e-16
14.7660  2.510e-16
14.7710  2.507e-16
14.7760  2.505e-16
14.7810  2.500e-16
14.7860  2.497e-16
14.7910  2.495e-16
14.7960  2.490e-16
14.8010  2.487e-16
14.8060  2.485e-16
14.8110  2.480e-16
14.8160  2.477e-16
14.8210  2.475e-16
14.8260  2.470e-16
14.8310  2.468e-16
14.8360  2.465e-16
14.8410  2.460e-16
14.8460  2.457e-16
14.8510  2.454e-16
14.8560  2.449e-16
14.8610  2.447e-16
14.8660  2.444e-16
14.8710  2.439e-16
14.8760  2.437e-16
14.8810  2.435e-16
14.8860  2.430e-16
14.8910  2.427e-16
14.8960  2.424e-16
14.9010  2.419e-16
14.9060  2.416e-16
14.9110  2.413e-16
14.9160  2.407e-16
14.9210  2.404e-16
14.9260  2.402e-16
14.9310  2.395e-16
14.9360  2.391e-16
14.9410  2.388e-16
14.9460  2.380e-16
14.9510  2.376e-16
14.9560  2.372e-16
14.9610  2.366e-16
14.9660  2.365e-16
14.9710  2.364e-16
14.9760  2.363e-16
14.9810  2.362e-16
14.9860  2.361e-16
14.9910  2.358e-16
14.9960  2.356e-16
15.0010  2.355e-16
15.0060  2.351e-16
15.0110  2.349e-16
15.0160  2.347e-16
15.0210  2.343e-16
15.0260  2.341e-16
15.0310  2.339e-16
15.0360  2.335e-16
15.0410  2.332e-16
15.0460  2.330e-16
15.0510  2.326e-16
15.0560  2.323e-16
15.0610  2.321e-16
15.0660  2.317e-16
15.0710  2.315e-16
15.0760  2.312e-16
15.0810  2.308e-16
15.0860  2.305e-16
15.0910  2.303e-16
15.0960  2.298e-16
15.1010  2.296e-16
15.1060  2.294e-16
15.1110  2.289e-16
15.1160  2.287e-16
15.1210  2.284e-16
15.1260  2.280e-16
15.1310  2.278e-16
15.1360  2.275e-16
15.1410  2.271e-16
15.1460  2.269e-16
15.1510  2.266e-16
15.1560  2.262e-16
15.1610  2.260e-16
15.1660  2.257e-16
15.1710  2.255e-16
15.1760  2.253e-16
15.1810  2.248e-16
15.1860  2.246e-16
15.1910  2.243e-16
15.1960  2.239e-16
15.2010  2.237e-16
15.2060  2.235e-16
15.2110  2.230e-16
15.2160  2.228e-16
15.2210  2.226e-16
15.2260  2.222e-16
15.2310  2.219e-16
15.2360  2.217e-16
15.2410  2.213e-16
15.2460  2.211e-16
15.2510  2.209e-16
15.2560  2.204e-16
15.2610  2.202e-16
15.2660  2.199e-16
15.2710  2.195e-16
15.2760  2.193e-16
15.2810  2.191e-16
15.2860  2.187e-16
15.2910  2.185e-16
15.2960  2.182e-16
15.3010  2.180e-16
15.3060  2.178e-16
15.3110  2.174e-16
15.3160  2.172e-16
15.3210  2.170e-16
15.3260  2.165e-16
15.3310  2.163e-16
15.3360  2.161e-16
15.3410  2.157e-16
15.3460  2.155e-16
15.3510  2.152e-16
15.3560  2.148e-16
15.3610  2.146e-16
15.3660  2.143e-16
15.3710  2.139e-16
15.3760  2.137e-16
15.3810  2.135e-16
15.3860  2.133e-16
15.3910  2.131e-16
15.3960  2.127e-16
15.4010  2.124e-16
15.4060  2.122e-16
15.4110  2.118e-16
15.4160  2.116e-16
15.4210  2.114e-16
15.4260  2.110e-16
15.4310  2.108e-16
15.4360  2.105e-16
15.4410  2.101e-16
15.4460  2.099e-16
15.4510  2.096e-16
15.4560  2.092e-16
15.4610  2.090e-16
15.4660  2.088e-16
15.4710  2.086e-16
15.4760  2.084e-16
15.4810  2.080e-16
15.4860  2.078e-16
15.4910  2.076e-16
15.4960  2.072e-16
15.5010  2.070e-16
15.5060  2.068e-16
15.5110  2.063e-16
15.5160  2.061e-16
15.5210  2.059e-16
15.5260  2.055e-16
15.5310  2.053e-16
15.5360  2.051e-16
15.5410  2.049e-16
15.5460  2.047e-16
15.5510  2.043e-16
15.5560  2.041e-16
15.5610  2.040e-16
15.5660  2.035e-16
15.5710  2.033e-16
15.5760  2.031e-16
15.5810  2.027e-16
15.5860  2.025e-16
15.5910  2.023e-16
15.5960  2.021e-16
15.6010  2.019e-16
15.6060  2.015e-16
15.6110  2.013e-16
15.6160  2.011e-16
15.6210  2.007e-16
15.6260  2.004e-16
15.6310  2.002e-16
15.6360  1.999e-16
15.6410  1.997e-16
15.6460  1.995e-16
15.6510  1.991e-16
15.6560  1.989e-16
15.6610  1.987e-16
15.6660  1.985e-16
15.6710  1.983e-16
15.6760  1.979e-16
15.6810  1.977e-16
15.6860  1.975e-16
15.6910  1.971e-16
15.6960  1.969e-16
15.7010  1.967e-16
15.7060  1.965e-16
15.7110  1.963e-16
15.7160  1.960e-16
15.7210  1.957e-16
15.7260  1.955e-16
15.7310  1.951e-16
15.7360  1.949e-16
15.7410  1.947e-16
15.7460  1.943e-16
15.7510  1.941e-16
15.7560  1.940e-16
15.7610  1.938e-16
15.7660  1.936e-16
15.7710  1.931e-16
15.7760  1.929e-16
15.7810  1.927e-16
15.7860  1.923e-16
15.7910  1.921e-16
15.7960  1.919e-16
15.8010  1.917e-16
15.8060  1.916e-16
15.8110  1.912e-16
15.8160  1.910e-16
15.8210  1.908e-16
15.8260  1.904e-16
15.8310  1.902e-16
15.8360  1.900e-16
15.8410  1.897e-16
15.8460  1.895e-16
15.8510  1.894e-16
15.8560  1.891e-16
15.8610  1.889e-16
15.8660  1.886e-16
15.8710  1.884e-16
15.8760  1.882e-16
15.8810  1.879e-16
15.8860  1.877e-16
15.8910  1.875e-16
15.8960  1.873e-16
15.9010  1.871e-16
15.9060  1.867e-16
15.9110  1.865e-16
15.9160  1.864e-16
15.9210  1.861e-16
15.9260  1.858e-16
15.9310  1.856e-16
15.9360  1.855e-16
15.9410  1.853e-16
15.9460  1.849e-16
15.9510  1.847e-16
15.9560  1.846e-16
15.9610  1.842e-16
15.9660  1.840e-16
15.9710  1.838e-16
15.9760  1.836e-16
15.9810  1.834e-16
15.9860  1.831e-16
15.9910  1.829e-16
15.9960  1.827e-16
16.0010  1.823e-16
16.0060  1.821e-16
16.0110  1.819e-16
16.0160  1.818e-16
16.0210  1.816e-16
16.0260  1.812e-16
16.0310  1.810e-16
16.0360  1.809e-16
16.0410  1.805e-16
16.0460  1.803e-16
16.0510  1.801e-16
16.0560  1.800e-16
16.0610  1.798e-16
16.0660  1.794e-16
16.0710  1.792e-16
16.0760  1.790e-16
16.0810  1.788e-16
16.0860  1.786e-16
16.0910  1.783e-16
16.0960  1.781e-16
16.1010  1.779e-16
16.1060  1.776e-16
16.1110  1.774e-16
16.1160  1.771e-16
16.1210  1.769e-16
16.1260  1.767e-16
16.1310  1.763e-16
16.1360  1.761e-16
16.1410  1.759e-16
16.1460  1.754e-16
16.1510  1.751e-16
16.1560  1.748e-16
16.1610  1.745e-16
16.1660  1.743e-16
16.1710  1.734e-16
16.1760  1.729e-16
16.1810  1.723e-16
16.1860  1.714e-16
16.1910  1.705e-16
16.1960  1.672e-16
16.2010  1.657e-16
16.2060  1.642e-16
16.2110  1.654e-16
16.2160  1.669e-16
16.2210  1.684e-16
16.2260  1.691e-16
16.2310  1.699e-16
16.2360  1.705e-16
16.2410  1.706e-16
16.2460  1.707e-16
16.2510  1.707e-16
16.2560  1.706e-16
16.2610  1.705e-16
16.2660  1.704e-16
16.2710  1.703e-16
16.2760  1.702e-16
16.2810  1.701e-16
16.2860  1.697e-16
16.2910  1.696e-16
16.2960  1.695e-16
16.3010  1.691e-16
16.3060  1.690e-16
16.3110  1.688e-16
16.3160  1.687e-16
16.3210  1.685e-16
16.3260  1.681e-16
16.3310  1.679e-16
16.3360  1.677e-16
16.3410  1.675e-16
16.3460  1.673e-16
16.3510  1.670e-16
16.3560  1.668e-16
16.3610  1.666e-16
16.3660  1.663e-16
16.3710  1.661e-16
16.3760  1.656e-16
16.3810  1.653e-16
16.3860  1.649e-16
16.3910  1.642e-16
16.3960  1.638e-16
16.4010  1.634e-16
16.4060  1.631e-16
16.4110  1.628e-16
16.4160  1.628e-16
16.4210  1.629e-16
16.4260  1.630e-16
16.4310  1.630e-16
16.4360  1.630e-16
16.4410  1.630e-16
16.4460  1.629e-16
16.4510  1.628e-16
16.4560  1.627e-16
16.4610  1.626e-16
16.4660  1.624e-16
16.4710  1.623e-16
16.4760  1.621e-16
16.4810  1.620e-16
16.4860  1.619e-16
16.4910  1.616e-16
16.4960  1.614e-16
16.5010  1.612e-16
16.5060  1.611e-16
16.5110  1.610e-16
16.5160  1.607e-16
16.5210  1.605e-16
16.5260  1.603e-16
16.5310  1.602e-16
16.5360  1.600e-16
16.5410  1.597e-16
16.5460  1.595e-16
16.5510  1.593e-16
16.5560  1.592e-16
16.5610  1.590e-16
16.5660  1.587e-16
16.5710  1.585e-16
16.5760  1.583e-16
16.5810  1.582e-16
16.5860  1.580e-16
16.5910  1.577e-16
16.5960  1.575e-16
16.6010  1.574e-16
16.6060  1.572e-16
16.6110  1.571e-16
16.6160  1.568e-16
16.6210  1.567e-16
16.6260  1.565e-16
16.6310  1.564e-16
16.6360  1.562e-16
16.6410  1.560e-16
16.6460  1.558e-16
16.6510  1.556e-16
16.6560  1.555e-16
16.6610  1.553e-16
16.6660  1.550e-16
16.6710  1.549e-16
16.6760  1.547e-16
16.6810  1.546e-16
16.6860  1.544e-16
16.6910  1.541e-16
16.6960  1.540e-16
16.7010  1.538e-16
16.7060  1.536e-16
16.7110  1.535e-16
16.7160  1.531e-16
16.7210  1.530e-16
16.7260  1.529e-16
16.7310  1.527e-16
16.7360  1.526e-16
16.7410  1.522e-16
16.7460  1.521e-16
16.7510  1.519e-16
16.7560  1.517e-16
16.7610  1.516e-16
16.7660  1.513e-16
16.7710  1.512e-16
16.7760  1.510e-16
16.7810  1.508e-16
16.7860  1.507e-16
16.7910  1.503e-16
16.7960  1.501e-16
16.8010  1.499e-16
16.8060  1.497e-16
16.8110  1.495e-16
16.8160  1.493e-16
16.8210  1.491e-16
16.8260  1.487e-16
16.8310  1.484e-16
16.8360  1.481e-16
16.8410  1.477e-16
16.8460  1.474e-16
16.8510  1.465e-16
16.8560  1.458e-16
16.8610  1.451e-16
16.8660  1.440e-16
16.8710  1.428e-16
16.8760  1.413e-16
16.8810  1.418e-16
16.8860  1.423e-16
16.8910  1.430e-16
16.8960  1.438e-16
16.9010  1.447e-16
16.9060  1.449e-16
16.9110  1.451e-16
16.9160  1.451e-16
16.9210  1.451e-16
16.9260  1.451e-16
16.9310  1.451e-16
16.9360  1.450e-16
16.9410  1.449e-16
16.9460  1.448e-16
16.9510  1.447e-16
16.9560  1.447e-16
16.9610  1.444e-16
16.9660  1.443e-16
16.9710  1.442e-16
16.9760  1.440e-16
16.9810  1.439e-16
16.9860  1.437e-16
16.9910  1.435e-16
16.9960  1.434e-16
17.0010  1.433e-16
17.0060  1.431e-16
17.0110  1.430e-16
17.0160  1.428e-16
17.0210  1.426e-16
17.0260  1.424e-16
17.0310  1.423e-16
17.0360  1.421e-16
17.0410  1.420e-16
17.0460  1.417e-16
17.0510  1.416e-16
17.0560  1.414e-16
17.0610  1.413e-16
17.0660  1.412e-16
17.0710  1.410e-16
17.0760  1.409e-16
17.0810  1.406e-16
17.0860  1.405e-16
17.0910  1.404e-16
17.0960  1.402e-16
17.1010  1.400e-16
17.1060  1.398e-16
17.1110  1.396e-16
17.1160  1.395e-16
17.1210  1.393e-16
17.1260  1.392e-16
17.1310  1.391e-16
17.1360  1.390e-16
17.1410  1.386e-16
17.1460  1.385e-16
17.1510  1.384e-16
17.1560  1.383e-16
17.1610  1.381e-16
17.1660  1.378e-16
17.1710  1.377e-16
17.1760  1.376e-16
17.1810  1.374e-16
17.1860  1.373e-16
17.1910  1.371e-16
17.1960  1.370e-16
17.2010  1.367e-16
17.2060  1.366e-16
17.2110  1.365e-16
17.2160  1.364e-16
17.2210  1.362e-16
17.2260  1.361e-16
17.2310  1.359e-16
17.2360  1.357e-16
17.2410  1.355e-16
17.2460  1.354e-16
17.2510  1.353e-16
17.2560  1.351e-16
17.2610  1.350e-16
17.2660  1.348e-16
17.2710  1.346e-16
17.2760  1.345e-16
17.2810  1.343e-16
17.2860  1.342e-16
17.2910  1.340e-16
17.2960  1.338e-16
17.3010  1.336e-16
17.3060  1.335e-16
17.3110  1.334e-16
17.3160  1.333e-16
17.3210  1.331e-16
17.3260  1.329e-16
17.3310  1.327e-16
17.3360  1.326e-16
17.3410  1.324e-16
17.3460  1.323e-16
17.3510  1.322e-16
17.3560  1.321e-16
17.3610  1.320e-16
17.3660  1.316e-16
17.3710  1.315e-16
17.3760  1.314e-16
17.3810  1.313e-16
17.3860  1.311e-16
17.3910  1.310e-16
17.3960  1.309e-16
17.4010  1.306e-16
17.4060  1.305e-16
17.4110  1.303e-16
17.4160  1.302e-16
17.4210  1.301e-16
17.4260  1.299e-16
17.4310  1.298e-16
17.4360  1.296e-16
17.4410  1.294e-16
17.4460  1.293e-16
17.4510  1.292e-16
17.4560  1.291e-16
17.4610  1.289e-16
17.4660  1.287e-16
17.4710  1.285e-16
17.4760  1.284e-16
17.4810  1.282e-16
17.4860  1.281e-16
17.4910  1.280e-16
17.4960  1.279e-16
17.5010  1.277e-16
17.5060  1.275e-16
17.5110  1.273e-16
17.5160  1.272e-16
17.5210  1.270e-16
17.5260  1.269e-16
17.5310  1.268e-16
17.5360  1.267e-16
17.5410  1.264e-16
17.5460  1.263e-16
17.5510  1.261e-16
17.5560  1.260e-16
17.5610  1.259e-16
17.5660  1.257e-16
17.5710  1.256e-16
17.5760  1.253e-16
17.5810  1.251e-16
17.5860  1.250e-16
17.5910  1.249e-16
17.5960  1.247e-16
17.6010  1.246e-16
17.6060  1.244e-16
17.6110  1.243e-16
17.6160  1.242e-16
17.6210  1.240e-16
17.6260  1.239e-16
17.6310  1.238e-16
17.6360  1.237e-16
17.6410  1.235e-16
17.6460  1.235e-16
17.6510  1.234e-16
17.6560  1.231e-16
17.6610  1.230e-16
17.6660  1.229e-16
17.6710  1.228e-16
17.6760  1.227e-16
17.6810  1.226e-16
17.6860  1.225e-16
17.6910  1.223e-16
17.6960  1.222e-16
17.7010  1.220e-16
17.7060  1.219e-16
17.7110  1.217e-16
17.7160  1.216e-16
17.7210  1.215e-16
17.7260  1.214e-16
17.7310  1.213e-16
17.7360  1.211e-16
17.7410  1.209e-16
17.7460  1.208e-16
17.7510  1.207e-16
17.7560  1.206e-16
17.7610  1.204e-16
17.7660  1.203e-16
17.7710  1.202e-16
17.7760  1.201e-16
17.7810  1.198e-16
17.7860  1.197e-16
17.7910  1.196e-16
17.7960  1.195e-16
17.8010  1.193e-16
17.8060  1.193e-16
17.8110  1.192e-16
17.8160  1.189e-16
17.8210  1.188e-16
17.8260  1.187e-16
17.8310  1.186e-16
17.8360  1.184e-16
17.8410  1.183e-16
17.8460  1.182e-16
17.8510  1.181e-16
17.8560  1.179e-16
17.8610  1.177e-16
17.8660  1.176e-16
17.8710  1.174e-16
17.8760  1.173e-16
17.8810  1.172e-16
17.8860  1.171e-16
17.8910  1.170e-16
17.8960  1.169e-16
17.9010  1.168e-16
17.9060  1.165e-16
17.9110  1.164e-16
17.9160  1.163e-16
17.9210  1.162e-16
17.9260  1.160e-16
17.9310  1.160e-16
17.9360  1.159e-16
17.9410  1.157e-16
17.9460  1.156e-16
17.9510  1.154e-16
17.9560  1.153e-16
17.9610  1.151e-16
17.9660  1.150e-16
17.9710  1.149e-16
17.9760  1.148e-16
17.9810  1.146e-16
17.9860  1.146e-16
17.9910  1.145e-16
17.9960  1.142e-16
18.0010  1.141e-16
18.0060  1.140e-16
18.0110  1.139e-16
18.0160  1.137e-16
18.0210  1.136e-16
18.0260  1.136e-16
18.0310  1.134e-16
18.0360  1.133e-16
18.0410  1.131e-16
18.0460  1.129e-16
18.0510  1.128e-16
18.0560  1.127e-16
18.0610  1.127e-16
18.0660  1.125e-16
18.0710  1.124e-16
18.0760  1.123e-16
18.0810  1.122e-16
18.0860  1.121e-16
18.0910  1.120e-16
18.0960  1.117e-16
18.1010  1.116e-16
18.1060  1.115e-16
18.1110  1.114e-16
18.1160  1.113e-16
18.1210  1.112e-16
18.1260  1.111e-16
18.1310  1.110e-16
18.1360  1.108e-16
18.1410  1.107e-16
18.1460  1.106e-16
18.1510  1.104e-16
18.1560  1.103e-16
18.1610  1.102e-16
18.1660  1.101e-16
18.1710  1.100e-16
18.1760  1.099e-16
18.1810  1.098e-16
18.1860  1.096e-16
18.1910  1.095e-16
18.1960  1.094e-16
18.2010  1.092e-16
18.2060  1.091e-16
18.2110  1.090e-16
18.2160  1.089e-16
18.2210  1.088e-16
18.2260  1.087e-16
18.2310  1.086e-16
18.2360  1.084e-16
18.2410  1.083e-16
18.2460  1.082e-16
18.2510  1.080e-16
18.2560  1.079e-16
18.2610  1.078e-16
18.2660  1.077e-16
18.2710  1.076e-16
18.2760  1.075e-16
18.2810  1.074e-16
18.2860  1.073e-16
18.2910  1.071e-16
18.2960  1.070e-16
18.3010  1.070e-16
18.3060  1.067e-16
18.3110  1.066e-16
18.3160  1.066e-16
18.3210  1.064e-16
18.3260  1.063e-16
18.3310  1.062e-16
18.3360  1.061e-16
18.3410  1.060e-16
18.3460  1.059e-16
18.3510  1.058e-16
18.3560  1.056e-16
18.3610  1.055e-16
18.3660  1.054e-16
18.3710  1.052e-16
18.3760  1.052e-16
18.3810  1.051e-16
18.3860  1.049e-16
18.3910  1.048e-16
18.3960  1.047e-16
18.4010  1.046e-16
18.4060  1.045e-16
18.4110  1.044e-16
18.4160  1.043e-16
18.4210  1.042e-16
18.4260  1.040e-16
18.4310  1.039e-16
18.4360  1.037e-16
18.4410  1.037e-16
18.4460  1.036e-16
18.4510  1.035e-16
18.4560  1.033e-16
18.4610  1.032e-16
18.4660  1.031e-16
18.4710  1.030e-16
18.4760  1.029e-16
18.4810  1.028e-16
18.4860  1.027e-16
18.4910  1.025e-16
18.4960  1.024e-16
18.5010  1.023e-16
18.5060  1.021e-16
18.5110  1.020e-16
18.5160  1.019e-16
18.5210  1.018e-16
18.5260  1.017e-16
18.5310  1.016e-16
18.5360  1.015e-16
18.5410  1.014e-16
18.5460  1.012e-16
18.5510  1.010e-16
18.5560  1.008e-16
18.5610  1.006e-16
18.5660  1.004e-16
18.5710  1.002e-16
18.5760  1.000e-16
18.5810  9.979e-17
18.5860  9.954e-17
18.5910  9.921e-17
18.5960  9.888e-17
18.6010  9.843e-17
18.6060  9.798e-17
18.6110  9.769e-17
18.6160  9.740e-17
18.6210  9.773e-17
18.6260  9.798e-17
18.6310  9.822e-17
18.6360  9.835e-17
18.6410  9.847e-17
18.6460  9.847e-17
18.6510  9.847e-17
18.6560  9.847e-17
18.6610  9.847e-17
18.6660  9.843e-17
18.6710  9.839e-17
18.6760  9.831e-17
18.6810  9.822e-17
18.6860  9.818e-17
18.6910  9.814e-17
18.6960  9.798e-17
18.7010  9.789e-17
18.7060  9.781e-17
18.7110  9.773e-17
18.7160  9.765e-17
18.7210  9.756e-17
18.7260  9.748e-17
18.7310  9.736e-17
18.7360  9.723e-17
18.7410  9.715e-17
18.7460  9.707e-17
18.7510  9.699e-17
18.7560  9.690e-17
18.7610  9.682e-17
18.7660  9.674e-17
18.7710  9.649e-17
18.7760  9.641e-17
18.7810  9.633e-17
18.7860  9.624e-17
18.7910  9.616e-17
18.7960  9.604e-17
18.8010  9.591e-17
18.8060  9.583e-17
18.8110  9.575e-17
18.8160  9.567e-17
18.8210  9.558e-17
18.8260  9.546e-17
18.8310  9.534e-17
18.8360  9.525e-17
18.8410  9.517e-17
18.8460  9.509e-17
18.8510  9.501e-17
18.8560  9.476e-17
18.8610  9.468e-17
18.8660  9.459e-17
18.8710  9.447e-17
18.8760  9.435e-17
18.8810  9.426e-17
18.8860  9.418e-17
18.8910  9.410e-17
18.8960  9.402e-17
18.9010  9.389e-17
18.9060  9.377e-17
18.9110  9.365e-17
18.9160  9.352e-17
18.9210  9.344e-17
18.9260  9.336e-17
18.9310  9.323e-17
18.9360  9.311e-17
18.9410  9.299e-17
18.9460  9.286e-17
18.9510  9.261e-17
18.9560  9.245e-17
18.9610  9.228e-17
18.9660  9.216e-17
18.9710  9.204e-17
18.9760  9.191e-17
18.9810  9.179e-17
18.9860  9.175e-17
18.9910  9.171e-17
18.9960  9.163e-17
19.0010  9.154e-17
19.0060  9.142e-17
19.0110  9.130e-17
19.0160  9.113e-17
19.0210  9.097e-17
19.0260  9.072e-17
19.0310  9.047e-17
19.0360  8.998e-17
19.0410  8.948e-17
19.0460  8.849e-17
19.0510  8.750e-17
19.0560  8.560e-17
19.0610  8.614e-17
19.0660  8.668e-17
19.0710  8.758e-17
19.0760  8.849e-17
19.0810  8.890e-17
19.0860  8.932e-17
19.0910  8.944e-17
19.0960  8.956e-17
19.1010  8.960e-17
19.1060  8.965e-17
19.1110  8.960e-17
19.1160  8.956e-17
19.1210  8.952e-17
19.1260  8.948e-17
19.1310  8.940e-17
19.1360  8.932e-17
19.1410  8.927e-17
19.1460  8.923e-17
19.1510  8.915e-17
19.1560  8.907e-17
19.1610  8.899e-17
19.1660  8.890e-17
19.1710  8.882e-17
19.1760  8.874e-17
19.1810  8.857e-17
19.1860  8.849e-17
19.1910  8.841e-17
19.1960  8.833e-17
19.2010  8.824e-17
19.2060  8.816e-17
19.2110  8.808e-17
19.2160  8.800e-17
19.2210  8.791e-17
19.2260  8.779e-17
19.2310  8.767e-17
19.2360  8.758e-17
19.2410  8.750e-17
19.2460  8.742e-17
19.2510  8.734e-17
19.2560  8.725e-17
19.2610  8.717e-17
19.2660  8.709e-17
19.2710  8.701e-17
19.2760  8.692e-17
19.2810  8.684e-17
19.2860  8.676e-17
19.2910  8.668e-17
19.2960  8.659e-17
19.3010  8.651e-17
19.3060  8.643e-17
19.3110  8.635e-17
19.3160  8.618e-17
19.3210  8.606e-17
19.3260  8.593e-17
19.3310  8.585e-17
19.3360  8.577e-17
19.3410  8.569e-17
19.3460  8.560e-17
19.3510  8.552e-17
19.3560  8.544e-17
19.3610  8.536e-17
19.3660  8.527e-17
19.3710  8.519e-17
19.3760  8.511e-17
19.3810  8.503e-17
19.3860  8.494e-17
19.3910  8.486e-17
19.3960  8.478e-17
19.4010  8.470e-17
19.4060  8.462e-17
19.4110  8.453e-17
19.4160  8.445e-17
19.4210  8.437e-17
19.4260  8.429e-17
19.4310  8.420e-17
19.4360  8.412e-17
19.4410  8.404e-17
19.4460  8.396e-17
19.4510  8.383e-17
19.4560  8.371e-17
19.4610  8.363e-17
19.4660  8.354e-17
19.4710  8.346e-17
19.4760  8.338e-17
19.4810  8.330e-17
19.4860  8.321e-17
19.4910  8.313e-17
19.4960  8.305e-17
19.5010  8.297e-17
19.5060  8.288e-17
19.5110  8.272e-17
19.5160  8.264e-17
19.5210  8.255e-17
19.5260  8.248e-17
19.5310  8.241e-17
19.5360  8.233e-17
19.5410  8.226e-17
19.5460  8.217e-17
19.5510  8.209e-17
19.5560  8.201e-17
19.5610  8.193e-17
19.5660  8.185e-17
19.5710  8.177e-17
19.5760  8.169e-17
19.5810  8.161e-17
19.5860  8.153e-17
19.5910  8.145e-17
19.5960  8.137e-17
19.6010  8.129e-17
19.6060  8.121e-17
19.6110  8.113e-17
19.6160  8.105e-17
19.6210  8.097e-17
19.6260  8.089e-17
19.6310  8.080e-17
19.6360  8.073e-17
19.6410  8.065e-17
19.6460  8.057e-17
19.6510  8.048e-17
19.6560  8.040e-17
19.6610  8.033e-17
19.6660  8.025e-17
19.6710  8.017e-17
19.6760  8.009e-17
19.6810  8.000e-17
19.6860  7.993e-17
19.6910  7.985e-17
19.6960  7.977e-17
19.7010  7.969e-17
19.7060  7.961e-17
19.7110  7.953e-17
19.7160  7.945e-17
19.7210  7.937e-17
19.7260  7.929e-17
19.7310  7.921e-17
19.7360  7.913e-17
19.7410  7.906e-17
19.7460  7.898e-17
19.7510  7.890e-17
19.7560  7.882e-17
19.7610  7.873e-17
19.7660  7.866e-17
19.7710  7.858e-17
19.7760  7.850e-17
19.7810  7.842e-17
19.7860  7.834e-17
19.7910  7.826e-17
19.7960  7.819e-17
19.8010  7.811e-17
19.8060  7.803e-17
19.8110  7.796e-17
19.8160  7.788e-17
19.8210  7.780e-17
19.8260  7.772e-17
19.8310  7.765e-17
19.8360  7.757e-17
19.8410  7.749e-17
19.8460  7.741e-17
19.8510  7.733e-17
19.8560  7.725e-17
19.8610  7.718e-17
19.8660  7.710e-17
19.8710  7.703e-17
19.8760  7.695e-17
19.8810  7.687e-17
19.8860  7.679e-17
19.8910  7.671e-17
19.8960  7.664e-17
19.9010  7.657e-17
19.9060  7.649e-17
19.9110  7.641e-17
19.9160  7.633e-17
19.9210  7.626e-17
19.9260  7.618e-17
19.9310  7.610e-17
19.9360  7.603e-17
19.9410  7.596e-17
19.9460  7.588e-17
19.9510  7.580e-17
19.9560  7.572e-17
19.9610  7.565e-17
19.9660  7.558e-17
19.9710  7.550e-17
19.9760  7.542e-17
19.9810  7.535e-17
19.9860  7.527e-17
19.9910  7.520e-17
19.9960  7.512e-17
20.0010  7.505e-17
20.0060  7.497e-17
20.0110  7.490e-17
20.0160  7.483e-17
20.0210  7.475e-17
20.0260  7.468e-17
20.0310  7.460e-17
20.0360  7.453e-17
20.0410  7.445e-17
20.0460  7.438e-17
20.0510  7.431e-17
20.0560  7.423e-17
20.0610  7.416e-17
20.0660  7.408e-17
20.0710  7.401e-17
20.0760  7.394e-17
20.0810  7.386e-17
20.0860  7.379e-17
20.0910  7.371e-17
20.0960  7.364e-17
20.1010  7.356e-17
20.1060  7.349e-17
20.1110  7.342e-17
20.1160  7.335e-17
20.1210  7.328e-17
20.1260  7.320e-17
20.1310  7.313e-17
20.1360  7.305e-17
20.1410  7.298e-17
20.1460  7.290e-17
20.1510  7.283e-17
20.1560  7.276e-17
20.1610  7.269e-17
20.1660  7.262e-17
20.1710  7.254e-17
20.1760  7.247e-17
20.1810  7.239e-17
20.1860  7.232e-17
20.1910  7.225e-17
20.1960  7.218e-17
20.2010  7.210e-17
20.2060  7.203e-17
20.2110  7.196e-17
20.2160  7.189e-17
20.2210  7.182e-17
20.2260  7.175e-17
20.2310  7.168e-17
20.2360  7.161e-17
20.2410  7.154e-17
20.2460  7.146e-17
20.2510  7.139e-17
20.2560  7.132e-17
20.2610  7.125e-17
20.2660  7.118e-17
20.2710  7.111e-17
20.2760  7.103e-17
20.2810  7.096e-17
20.2860  7.089e-17
20.2910  7.082e-17
20.2960  7.075e-17
20.3010  7.068e-17
20.3060  7.061e-17
20.3110  7.054e-17
20.3160  7.046e-17
20.3210  7.039e-17
20.3260  7.039e-17
20.3310  7.032e-17
20.3360  7.025e-17
20.3410  7.025e-17
20.3460  7.011e-17
20.3510  7.011e-17
20.3560  6.997e-17
20.3610  6.997e-17
20.3660  6.983e-17
20.3710  6.983e-17
20.3760  6.969e-17
20.3810  6.969e-17
20.3860  6.955e-17
20.3910  6.955e-17
20.3960  6.940e-17
20.4010  6.940e-17
20.4060  6.926e-17
20.4110  6.926e-17
20.4160  6.912e-17
20.4210  6.912e-17
20.4260  6.898e-17
20.4310  6.898e-17
20.4360  6.884e-17
20.4410  6.884e-17
20.4460  6.870e-17
20.4510  6.870e-17
20.4560  6.855e-17
20.4610  6.855e-17
20.4660  6.841e-17
20.4710  6.841e-17
20.4760  6.826e-17
20.4810  6.826e-17
20.4860  6.812e-17
20.4910  6.812e-17
20.4960  6.797e-17
20.5010  6.797e-17
20.5060  6.782e-17
20.5110  6.782e-17
20.5160  6.768e-17
20.5210  6.768e-17
20.5260  6.756e-17
20.5310  6.756e-17
20.5360  6.749e-17
20.5410  6.743e-17
20.5460  6.743e-17
20.5510  6.730e-17
20.5560  6.730e-17
20.5610  6.717e-17
20.5660  6.717e-17
20.5710  6.705e-17
20.5760  6.705e-17
20.5810  6.692e-17
20.5860  6.692e-17
20.5910  6.678e-17
20.5960  6.678e-17
20.6010  6.665e-17
20.6060  6.665e-17
20.6110  6.653e-17
20.6160  6.653e-17
20.6210  6.640e-17
20.6260  6.640e-17
20.6310  6.627e-17
20.6360  6.627e-17
20.6410  6.613e-17
20.6460  6.613e-17
20.6510  6.600e-17
20.6560  6.600e-17
20.6610  6.587e-17
20.6660  6.587e-17
20.6710  6.574e-17
20.6760  6.574e-17
20.6810  6.567e-17
20.6860  6.561e-17
20.6910  6.561e-17
20.6960  6.547e-17
20.7010  6.547e-17
20.7060  6.535e-17
20.7110  6.535e-17
20.7160  6.522e-17
20.7210  6.522e-17
20.7260  6.509e-17
20.7310  6.509e-17
20.7360  6.495e-17
20.7410  6.495e-17
20.7460  6.482e-17
20.7510  6.482e-17
20.7560  6.469e-17
20.7610  6.469e-17
20.7660  6.456e-17
20.7710  6.456e-17
20.7760  6.442e-17
20.7810  6.442e-17
20.7860  6.429e-17
20.7910  6.429e-17
20.7960  6.415e-17
20.8010  6.415e-17
20.8060  6.408e-17
20.8110  6.401e-17
20.8160  6.401e-17
20.8210  6.387e-17
20.8260  6.387e-17
20.8310  6.373e-17
20.8360  6.373e-17
20.8410  6.358e-17
20.8460  6.358e-17
20.8510  6.343e-17
20.8560  6.343e-17
20.8610  6.327e-17
20.8660  6.327e-17
20.8710  6.310e-17
20.8760  6.310e-17
20.8810  6.290e-17
20.8860  6.290e-17
20.8910  6.268e-17
20.8960  6.268e-17
20.9010  6.242e-17
20.9060  6.242e-17
20.9110  6.217e-17
20.9160  6.217e-17
20.9210  6.211e-17
20.9260  6.205e-17
20.9310  6.205e-17
20.9360  6.206e-17
20.9410  6.206e-17
20.9460  6.207e-17
20.9510  6.207e-17
20.9560  6.203e-17
20.9610  6.203e-17
20.9660  6.197e-17
20.9710  6.197e-17
20.9760  6.189e-17
20.9810  6.189e-17
20.9860  6.180e-17
20.9910  6.180e-17
20.9960  6.170e-17
21.0010  6.170e-17
21.0060  6.160e-17
21.0110  6.160e-17
21.0160  6.154e-17
21.0210  6.149e-17
21.0260  6.149e-17
21.0310  6.137e-17
21.0360  6.137e-17
21.0410  6.127e-17
21.0460  6.127e-17
21.0510  6.114e-17
21.0560  6.114e-17
21.0610  6.103e-17
21.0660  6.103e-17
21.0710  6.091e-17
21.0760  6.091e-17
21.0810  6.079e-17
21.0860  6.079e-17
21.0910  6.067e-17
21.0960  6.067e-17
21.1010  6.055e-17
21.1060  6.055e-17
21.1110  6.049e-17
21.1160  6.043e-17
21.1210  6.043e-17
21.1260  6.031e-17
21.1310  6.031e-17
21.1360  6.020e-17
21.1410  6.020e-17
21.1460  6.008e-17
21.1510  6.008e-17
21.1560  5.996e-17
21.1610  5.996e-17
21.1660  5.984e-17
21.1710  5.984e-17
21.1760  5.972e-17
21.1810  5.972e-17
21.1860  5.960e-17
21.1910  5.960e-17
21.1960  5.954e-17
21.2010  5.949e-17
21.2060  5.949e-17
21.2110  5.936e-17
21.2160  5.936e-17
21.2210  5.925e-17
21.2260  5.925e-17
21.2310  5.913e-17
21.2360  5.913e-17
21.2410  5.901e-17
21.2460  5.901e-17
21.2510  5.889e-17
21.2560  5.889e-17
21.2610  5.878e-17
21.2660  5.878e-17
21.2710  5.866e-17
21.2760  5.866e-17
21.2810  5.860e-17
21.2860  5.854e-17
21.2910  5.854e-17
21.2960  5.842e-17
21.3010  5.842e-17
21.3060  5.831e-17
21.3110  5.831e-17
21.3160  5.819e-17
21.3210  5.819e-17
21.3260  5.808e-17
21.3310  5.808e-17
21.3360  5.796e-17
21.3410  5.796e-17
21.3460  5.785e-17
21.3510  5.785e-17
21.3560  5.779e-17
21.3610  5.773e-17
21.3660  5.773e-17
21.3710  5.761e-17
21.3760  5.761e-17
21.3810  5.750e-17
21.3860  5.750e-17
21.3910  5.738e-17
21.3960  5.738e-17
21.4010  5.727e-17
21.4060  5.727e-17
21.4110  5.715e-17
21.4160  5.715e-17
21.4210  5.704e-17
21.4260  5.704e-17
21.4310  5.698e-17
21.4360  5.692e-17
21.4410  5.692e-17
21.4460  5.681e-17
21.4510  5.681e-17
21.4560  5.670e-17
21.4610  5.670e-17
21.4660  5.658e-17
21.4710  5.658e-17
21.4760  5.647e-17
21.4810  5.647e-17
21.4860  5.635e-17
21.4910  5.635e-17
21.4960  5.630e-17
21.5010  5.625e-17
21.5060  5.625e-17
21.5110  5.613e-17
21.5160  5.613e-17
21.5210  5.601e-17
21.5260  5.601e-17
21.5310  5.591e-17
21.5360  5.591e-17
21.5410  5.579e-17
21.5460  5.579e-17
21.5510  5.568e-17
21.5560  5.568e-17
21.5610  5.562e-17
21.5660  5.557e-17
21.5710  5.557e-17
21.5760  5.545e-17
21.5810  5.545e-17
21.5860  5.535e-17
21.5910  5.535e-17
21.5960  5.523e-17
21.6010  5.523e-17
21.6060  5.512e-17
21.6110  5.512e-17
21.6160  5.501e-17
21.6210  5.501e-17
21.6260  5.495e-17
21.6310  5.490e-17
21.6360  5.490e-17
21.6410  5.479e-17
21.6460  5.479e-17
21.6510  5.468e-17
21.6560  5.468e-17
21.6610  5.456e-17
21.6660  5.456e-17
21.6710  5.446e-17
21.6760  5.446e-17
21.6810  5.435e-17
21.6860  5.435e-17
21.6910  5.429e-17
21.6960  5.423e-17
21.7010  5.423e-17
21.7060  5.413e-17
21.7110  5.413e-17
21.7160  5.401e-17
21.7210  5.401e-17
21.7260  5.390e-17
21.7310  5.390e-17
21.7360  5.379e-17
21.7410  5.379e-17
21.7460  5.373e-17
21.7510  5.367e-17
21.7560  5.367e-17
21.7610  5.356e-17
21.7660  5.356e-17
21.7710  5.345e-17
21.7760  5.345e-17
21.7810  5.333e-17
21.7860  5.333e-17
21.7910  5.322e-17
21.7960  5.322e-17
21.8010  5.309e-17
21.8060  5.309e-17
21.8110  5.304e-17
21.8160  5.298e-17
21.8210  5.298e-17
21.8260  5.286e-17
21.8310  5.286e-17
21.8360  5.274e-17
21.8410  5.274e-17
21.8460  5.263e-17
21.8510  5.263e-17
21.8560  5.255e-17
21.8610  5.255e-17
21.8660  5.251e-17
21.8710  5.246e-17
21.8760  5.246e-17
21.8810  5.236e-17
21.8860  5.236e-17
21.8910  5.227e-17
21.8960  5.227e-17
21.9010  5.217e-17
21.9060  5.217e-17
21.9110  5.208e-17
21.9160  5.208e-17
21.9210  5.203e-17
21.9260  5.198e-17
21.9310  5.198e-17
21.9360  5.187e-17
21.9410  5.187e-17
21.9460  5.178e-17
21.9510  5.178e-17
21.9560  5.168e-17
21.9610  5.168e-17
21.9660  5.158e-17
21.9710  5.158e-17
21.9760  5.152e-17
21.9810  5.147e-17
21.9860  5.147e-17
21.9910  5.137e-17
21.9960  5.137e-17
22.0010  5.127e-17
22.0060  5.127e-17
22.0110  5.116e-17
22.0160  5.116e-17
22.0210  5.107e-17
22.0260  5.107e-17
22.0310  5.102e-17
22.0360  5.097e-17
22.0410  5.097e-17
22.0460  5.086e-17
22.0510  5.086e-17
22.0560  5.076e-17
22.0610  5.076e-17
22.0660  5.065e-17
22.0710  5.065e-17
22.0760  5.060e-17
22.0810  5.055e-17
22.0860  5.055e-17
22.0910  5.045e-17
22.0960  5.045e-17
22.1010  5.035e-17
22.1060  5.035e-17
22.1110  5.024e-17
22.1160  5.024e-17
22.1210  5.014e-17
22.1260  5.014e-17
22.1310  5.009e-17
22.1360  5.004e-17
22.1410  5.004e-17
22.1460  4.994e-17
22.1510  4.994e-17
22.1560  4.983e-17
22.1610  4.983e-17
22.1660  4.972e-17
22.1710  4.972e-17
22.1760  4.967e-17
22.1810  4.961e-17
22.1860  4.961e-17
22.1910  4.951e-17
22.1960  4.951e-17
22.2010  4.939e-17
22.2060  4.939e-17
22.2110  4.928e-17
22.2160  4.928e-17
22.2210  4.915e-17
22.2260  4.915e-17
22.2310  4.909e-17
22.2360  4.903e-17
22.2410  4.903e-17
22.2460  4.889e-17
22.2510  4.889e-17
22.2560  4.873e-17
22.2610  4.873e-17
22.2660  4.856e-17
22.2710  4.856e-17
22.2760  4.845e-17
22.2810  4.834e-17
22.2860  4.834e-17
22.2910  4.807e-17
22.2960  4.807e-17
22.3010  4.769e-17
22.3060  4.769e-17
22.3110  4.707e-17
22.3160  4.707e-17
22.3210  4.661e-17
22.3260  4.615e-17
22.3310  4.615e-17
22.3360  4.551e-17
22.3410  4.551e-17
22.3460  4.594e-17
22.3510  4.594e-17
22.3560  4.674e-17
22.3610  4.674e-17
22.3660  4.696e-17
22.3710  4.718e-17
22.3760  4.718e-17
22.3810  4.736e-17
22.3860  4.736e-17
22.3910  4.743e-17
22.3960  4.743e-17
22.4010  4.744e-17
22.4060  4.744e-17
22.4110  4.742e-17
22.4160  4.741e-17
22.4210  4.741e-17
22.4260  4.736e-17
22.4310  4.736e-17
22.4360  4.731e-17
22.4410  4.731e-17
22.4460  4.723e-17
22.4510  4.723e-17
22.4560  4.719e-17
22.4610  4.716e-17
22.4660  4.716e-17
22.4710  4.708e-17
22.4760  4.708e-17
22.4810  4.699e-17
22.4860  4.699e-17
22.4910  4.691e-17
22.4960  4.691e-17
22.5010  4.686e-17
22.5060  4.682e-17
22.5110  4.682e-17
22.5160  4.674e-17
22.5210  4.674e-17
22.5260  4.665e-17
22.5310  4.665e-17
22.5360  4.655e-17
22.5410  4.655e-17
22.5460  4.651e-17
22.5510  4.646e-17
22.5560  4.646e-17
22.5610  4.637e-17
22.5660  4.637e-17
22.5710  4.628e-17
22.5760  4.628e-17
22.5810  4.619e-17
22.5860  4.619e-17
22.5910  4.615e-17
22.5960  4.610e-17
22.6010  4.610e-17
22.6060  4.600e-17
22.6110  4.600e-17
22.6160  4.591e-17
22.6210  4.591e-17
22.6260  4.587e-17
22.6310  4.582e-17
22.6360  4.582e-17
22.6410  4.573e-17
22.6460  4.573e-17
22.6510  4.564e-17
22.6560  4.564e-17
22.6610  4.555e-17
22.6660  4.555e-17
22.6710  4.550e-17
22.6760  4.546e-17
22.6810  4.546e-17
22.6860  4.537e-17
22.6910  4.537e-17
22.6960  4.528e-17
22.7010  4.528e-17
22.7060  4.519e-17
22.7110  4.519e-17
22.7160  4.515e-17
22.7210  4.510e-17
22.7260  4.510e-17
22.7310  4.501e-17
22.7360  4.501e-17
22.7410  4.492e-17
22.7460  4.492e-17
22.7510  4.488e-17
22.7560  4.483e-17
22.7610  4.483e-17
22.7660  4.475e-17
22.7710  4.475e-17
22.7760  4.466e-17
22.7810  4.466e-17
22.7860  4.457e-17
22.7910  4.457e-17
22.7960  4.452e-17
22.8010  4.448e-17
22.8060  4.448e-17
22.8110  4.439e-17
22.8160  4.439e-17
22.8210  4.430e-17
22.8260  4.430e-17
22.8310  4.426e-17
22.8360  4.421e-17
22.8410  4.421e-17
22.8460  4.412e-17
22.8510  4.412e-17
22.8560  4.404e-17
22.8610  4.404e-17
22.8660  4.395e-17
22.8710  4.395e-17
22.8760  4.390e-17
22.8810  4.386e-17
22.8860  4.386e-17
22.8910  4.378e-17
22.8960  4.378e-17
22.9010  4.368e-17
22.9060  4.368e-17
22.9110  4.364e-17
22.9160  4.360e-17
22.9210  4.360e-17
22.9260  4.351e-17
22.9310  4.351e-17
22.9360  4.342e-17
22.9410  4.342e-17
22.9460  4.338e-17
22.9510  4.334e-17
22.9560  4.334e-17
22.9610  4.325e-17
22.9660  4.325e-17
22.9710  4.317e-17
22.9760  4.317e-17
22.9810  4.307e-17
22.9860  4.307e-17
22.9910  4.303e-17
22.9960  4.299e-17
23.0010  4.299e-17
23.0060  4.291e-17
23.0110  4.291e-17
23.0160  4.282e-17
23.0210  4.282e-17
23.0260  4.278e-17
23.0310  4.274e-17
23.0360  4.274e-17
23.0410  4.265e-17
23.0460  4.265e-17
23.0510  4.256e-17
23.0560  4.256e-17
23.0610  4.252e-17
23.0660  4.248e-17
23.0710  4.248e-17
23.0760  4.239e-17
23.0810  4.239e-17
23.0860  4.231e-17
23.0910  4.231e-17
23.0960  4.227e-17
23.1010  4.223e-17
23.1060  4.223e-17
23.1110  4.213e-17
23.1160  4.213e-17
23.1210  4.205e-17
23.1260  4.205e-17
23.1310  4.201e-17
23.1360  4.197e-17
23.1410  4.197e-17
23.1460  4.189e-17
23.1510  4.189e-17
23.1560  4.180e-17
23.1610  4.180e-17
23.1660  4.176e-17
23.1710  4.171e-17
23.1760  4.171e-17
23.1810  4.163e-17
23.1860  4.163e-17
23.1910  4.155e-17
23.1960  4.155e-17
23.2010  4.151e-17
23.2060  4.147e-17
23.2110  4.147e-17
23.2160  4.138e-17
23.2210  4.138e-17
23.2260  4.130e-17
23.2310  4.130e-17
23.2360  4.126e-17
23.2410  4.122e-17
23.2460  4.122e-17
23.2510  4.114e-17
23.2560  4.114e-17
23.2610  4.105e-17
23.2660  4.105e-17
23.2710  4.101e-17
23.2760  4.097e-17
23.2810  4.097e-17
23.2860  4.089e-17
23.2910  4.089e-17
23.2960  4.081e-17
23.3010  4.081e-17
23.3060  4.077e-17
23.3110  4.072e-17
23.3160  4.072e-17
23.3210  4.064e-17
23.3260  4.064e-17
23.3310  4.056e-17
23.3360  4.056e-17
23.3410  4.052e-17
23.3460  4.048e-17
23.3510  4.048e-17
23.3560  4.039e-17
23.3610  4.039e-17
23.3660  4.031e-17
23.3710  4.031e-17
23.3760  4.027e-17
23.3810  4.024e-17
23.3860  4.024e-17
23.3910  4.016e-17
23.3960  4.016e-17
23.4010  4.007e-17
23.4060  4.007e-17
23.4110  4.003e-17
23.4160  3.999e-17
23.4210  3.999e-17
23.4260  3.991e-17
23.4310  3.991e-17
23.4360  3.983e-17
23.4410  3.983e-17
23.4460  3.978e-17
23.4510  3.974e-17
23.4560  3.974e-17
23.4610  3.966e-17
23.4660  3.966e-17
23.4710  3.959e-17
23.4760  3.959e-17
23.4810  3.954e-17
23.4860  3.950e-17
23.4910  3.950e-17
23.4960  3.942e-17
23.5010  3.942e-17
23.5060  3.938e-17
23.5110  3.934e-17
23.5160  3.934e-17
23.5210  3.925e-17
23.5260  3.925e-17
23.5310  3.917e-17
23.5360  3.917e-17
23.5410  3.912e-17
23.5460  3.908e-17
23.5510  3.908e-17
23.5560  3.899e-17
23.5610  3.899e-17
23.5660  3.890e-17
23.5710  3.890e-17
23.5760  3.886e-17
23.5810  3.881e-17
23.5860  3.881e-17
23.5910  3.872e-17
23.5960  3.872e-17
23.6010  3.861e-17
23.6060  3.861e-17
23.6110  3.856e-17
23.6160  3.851e-17
23.6210  3.851e-17
23.6260  3.841e-17
23.6310  3.841e-17
23.6360  3.838e-17
23.6410  3.834e-17
23.6460  3.834e-17
23.6510  3.828e-17
23.6560  3.828e-17
23.6610  3.823e-17
23.6660  3.823e-17
23.6710  3.820e-17
23.6760  3.817e-17
23.6810  3.817e-17
23.6860  3.810e-17
23.6910  3.810e-17
23.6960  3.804e-17
23.7010  3.804e-17
23.7060  3.800e-17
23.7110  3.797e-17
23.7160  3.797e-17
23.7210  3.790e-17
23.7260  3.790e-17
23.7310  3.786e-17
23.7360  3.782e-17
23.7410  3.782e-17
23.7460  3.774e-17
23.7510  3.774e-17
23.7560  3.766e-17
23.7610  3.766e-17
23.7660  3.762e-17
23.7710  3.757e-17
23.7760  3.757e-17
23.7810  3.748e-17
23.7860  3.748e-17
23.7910  3.743e-17
23.7960  3.738e-17
23.8010  3.738e-17
23.8060  3.727e-17
23.8110  3.727e-17
23.8160  3.714e-17
23.8210  3.714e-17
23.8260  3.706e-17
23.8310  3.698e-17
23.8360  3.698e-17
23.8410  3.677e-17
23.8460  3.677e-17
23.8510  3.650e-17
23.8560  3.650e-17
23.8610  3.641e-17
23.8660  3.631e-17
23.8710  3.631e-17
23.8760  3.636e-17
23.8810  3.636e-17
23.8860  3.642e-17
23.8910  3.649e-17
23.8960  3.649e-17
23.9010  3.655e-17
23.9060  3.655e-17
23.9110  3.656e-17
23.9160  3.656e-17
23.9210  3.655e-17
23.9260  3.654e-17
23.9310  3.654e-17
23.9360  3.651e-17
23.9410  3.651e-17
23.9460  3.649e-17
23.9510  3.646e-17
23.9560  3.646e-17
23.9610  3.640e-17
23.9660  3.640e-17
23.9710  3.634e-17
23.9760  3.634e-17
23.9810  3.632e-17
23.9860  3.629e-17
23.9910  3.629e-17
23.9960  3.622e-17
24.0010  3.622e-17
24.0060  3.619e-17
24.0110  3.616e-17
24.0160  3.616e-17
24.0210  3.609e-17
24.0260  3.609e-17
24.0310  3.605e-17
24.0360  3.601e-17
24.0410  3.601e-17
24.0460  3.595e-17
24.0510  3.595e-17
24.0560  3.588e-17
24.0610  3.588e-17
24.0660  3.585e-17
24.0710  3.581e-17
24.0760  3.581e-17
24.0810  3.574e-17
24.0860  3.574e-17
24.0910  3.571e-17
24.0960  3.567e-17
24.1010  3.567e-17
24.1060  3.560e-17
24.1110  3.560e-17
24.1160  3.553e-17
24.1210  3.553e-17
24.1260  3.549e-17
24.1310  3.545e-17
24.1360  3.545e-17
24.1410  3.539e-17
24.1460  3.539e-17
24.1510  3.535e-17
24.1560  3.531e-17
24.1610  3.531e-17
24.1660  3.525e-17
24.1710  3.525e-17
24.1760  3.521e-17
24.1810  3.517e-17
24.1860  3.517e-17
24.1910  3.511e-17
24.1960  3.511e-17
24.2010  3.503e-17
24.2060  3.503e-17
24.2110  3.500e-17
24.2160  3.497e-17
24.2210  3.497e-17
24.2260  3.489e-17
24.2310  3.489e-17
24.2360  3.486e-17
24.2410  3.483e-17
24.2460  3.483e-17
24.2510  3.476e-17
24.2560  3.476e-17
24.2610  3.472e-17
24.2660  3.469e-17
24.2710  3.469e-17
24.2760  3.462e-17
24.2810  3.462e-17
24.2860  3.455e-17
24.2910  3.455e-17
24.2960  3.451e-17
24.3010  3.448e-17
24.3060  3.448e-17
24.3110  3.441e-17
24.3160  3.441e-17
24.3210  3.437e-17
24.3260  3.434e-17
24.3310  3.434e-17
24.3360  3.427e-17
24.3410  3.427e-17
24.3460  3.424e-17
24.3510  3.420e-17
24.3560  3.420e-17
24.3610  3.413e-17
24.3660  3.413e-17
24.3710  3.410e-17
24.3760  3.407e-17
24.3810  3.407e-17
24.3860  3.400e-17
24.3910  3.400e-17
24.3960  3.393e-17
24.4010  3.393e-17
24.4060  3.390e-17
24.4110  3.386e-17
24.4160  3.386e-17
24.4210  3.380e-17
24.4260  3.380e-17
24.4310  3.376e-17
24.4360  3.373e-17
24.4410  3.373e-17
24.4460  3.366e-17
24.4510  3.366e-17
24.4560  3.362e-17
24.4610  3.359e-17
24.4660  3.359e-17
24.4710  3.352e-17
24.4760  3.352e-17
24.4810  3.349e-17
24.4860  3.346e-17
24.4910  3.346e-17
24.4960  3.339e-17
24.5010  3.339e-17
24.5060  3.336e-17
24.5110  3.333e-17
24.5160  3.333e-17
24.5210  3.326e-17
24.5260  3.326e-17
24.5310  3.323e-17
24.5360  3.319e-17
24.5410  3.319e-17
24.5460  3.313e-17
24.5510  3.313e-17
24.5560  3.305e-17
24.5610  3.305e-17
24.5660  3.302e-17
24.5710  3.299e-17
24.5760  3.299e-17
24.5810  3.292e-17
24.5860  3.292e-17
24.5910  3.289e-17
24.5960  3.286e-17
24.6010  3.286e-17
24.6060  3.279e-17
24.6110  3.279e-17
24.6160  3.276e-17
24.6210  3.272e-17
24.6260  3.272e-17
24.6310  3.267e-17
24.6360  3.267e-17
24.6410  3.263e-17
24.6460  3.260e-17
24.6510  3.260e-17
24.6560  3.253e-17
24.6610  3.253e-17
24.6660  3.250e-17
24.6710  3.247e-17
24.6760  3.247e-17
24.6810  3.240e-17
24.6860  3.240e-17
24.6910  3.237e-17
24.6960  3.234e-17
24.7010  3.234e-17
24.7060  3.227e-17
24.7110  3.227e-17
24.7160  3.224e-17
24.7210  3.220e-17
24.7260  3.220e-17
24.7310  3.214e-17
24.7360  3.214e-17
24.7410  3.211e-17
24.7460  3.208e-17
24.7510  3.208e-17
24.7560  3.202e-17
24.7610  3.202e-17
24.7660  3.198e-17
24.7710  3.195e-17
24.7760  3.195e-17
24.7810  3.188e-17
24.7860  3.188e-17
24.7910  3.185e-17
24.7960  3.182e-17
24.8010  3.182e-17
24.8060  3.175e-17
24.8110  3.175e-17
24.8160  3.169e-17
24.8210  3.169e-17
24.8260  3.166e-17
24.8310  3.163e-17
24.8360  3.163e-17
24.8410  3.156e-17
24.8460  3.156e-17
24.8510  3.153e-17
24.8560  3.150e-17
24.8610  3.150e-17
24.8660  3.144e-17
24.8710  3.144e-17
24.8760  3.140e-17
24.8810  3.137e-17
24.8860  3.137e-17
24.8910  3.131e-17
24.8960  3.131e-17
24.9010  3.127e-17
24.9060  3.124e-17
24.9110  3.124e-17
24.9160  3.117e-17
24.9210  3.117e-17
24.9260  3.114e-17
24.9310  3.111e-17
24.9360  3.111e-17
24.9410  3.105e-17
24.9460  3.105e-17
24.9510  3.102e-17
24.9560  3.098e-17
24.9610  3.098e-17
24.9660  3.092e-17
24.9710  3.092e-17
24.9760  3.089e-17
24.9810  3.085e-17
24.9860  3.085e-17
24.9910  3.082e-17
24.9960  3.079e-17
25.0010  3.079e-17
25.0060  3.074e-17
25.0110  3.074e-17
25.0160  3.071e-17
25.0210  3.068e-17
25.0260  3.068e-17
25.0310  3.061e-17
25.0360  3.061e-17
25.0410  3.058e-17
25.0460  3.056e-17
25.0510  3.056e-17
25.0560  3.050e-17
25.0610  3.050e-17
25.0660  3.047e-17
25.0710  3.044e-17
25.0760  3.044e-17
25.0810  3.038e-17
25.0860  3.038e-17
25.0910  3.035e-17
25.0960  3.032e-17
25.1010  3.032e-17
25.1060  3.026e-17
25.1110  3.026e-17
25.1160  3.023e-17
25.1210  3.020e-17
25.1260  3.020e-17
25.1310  3.014e-17
25.1360  3.014e-17
25.1410  3.011e-17
25.1460  3.008e-17
25.1510  3.008e-17
25.1560  3.002e-17
25.1610  3.002e-17
25.1660  2.999e-17
25.1710  2.996e-17
25.1760  2.996e-17
25.1810  2.990e-17
25.1860  2.990e-17
25.1910  2.987e-17
25.1960  2.984e-17
25.2010  2.984e-17
25.2060  2.978e-17
25.2110  2.978e-17
25.2160  2.975e-17
25.2210  2.972e-17
25.2260  2.972e-17
25.2310  2.966e-17
25.2360  2.966e-17
25.2410  2.964e-17
25.2460  2.961e-17
25.2510  2.961e-17
25.2560  2.954e-17
25.2610  2.954e-17
25.2660  2.951e-17
25.2710  2.948e-17
25.2760  2.948e-17
25.2810  2.945e-17
25.2860  2.943e-17
25.2910  2.943e-17
25.2960  2.937e-17
25.3010  2.937e-17
25.3060  2.934e-17
25.3110  2.931e-17
25.3160  2.931e-17
25.3210  2.925e-17
25.3260  2.925e-17
25.3310  2.922e-17
25.3360  2.919e-17
25.3410  2.919e-17
25.3460  2.914e-17
25.3510  2.914e-17
25.3560  2.911e-17
25.3610  2.908e-17
25.3660  2.908e-17
25.3710  2.902e-17
25.3760  2.902e-17
25.3810  2.899e-17
25.3860  2.896e-17
25.3910  2.896e-17
25.3960  2.890e-17
25.4010  2.890e-17
25.4060  2.890e-17
25.4110  2.884e-17
25.4160  2.884e-17
25.4210  2.881e-17
25.4260  2.878e-17
25.4310  2.878e-17
25.4360  2.872e-17
25.4410  2.872e-17
25.4460  2.870e-17
25.4510  2.867e-17
25.4560  2.867e-17
25.4610  2.862e-17
25.4660  2.862e-17
25.4710  2.859e-17
25.4760  2.856e-17
25.4810  2.856e-17
25.4860  2.850e-17
25.4910  2.850e-17
25.4960  2.847e-17
25.5010  2.844e-17
25.5060  2.844e-17
25.5110  2.839e-17
25.5160  2.839e-17
25.5210  2.836e-17
25.5260  2.833e-17
25.5310  2.833e-17
25.5360  2.830e-17
25.5410  2.827e-17
25.5460  2.827e-17
25.5510  2.821e-17
25.5560  2.821e-17
25.5610  2.818e-17
25.5660  2.816e-17
25.5710  2.816e-17
25.5760  2.810e-17
25.5810  2.810e-17
25.5860  2.807e-17
25.5910  2.805e-17
25.5960  2.805e-17
25.6010  2.799e-17
25.6060  2.799e-17
25.6110  2.796e-17
25.6160  2.793e-17
25.6210  2.793e-17
25.6260  2.790e-17
25.6310  2.788e-17
25.6360  2.788e-17
25.6410  2.782e-17
25.6460  2.782e-17
25.6510  2.779e-17
25.6560  2.777e-17
25.6610  2.777e-17
25.6660  2.771e-17
25.6710  2.771e-17
25.6760  2.768e-17
25.6810  2.765e-17
25.6860  2.765e-17
25.6910  2.759e-17
25.6960  2.759e-17
25.7010  2.757e-17
25.7060  2.755e-17
25.7110  2.755e-17
25.7160  2.752e-17
25.7210  2.749e-17
25.7260  2.749e-17
25.7310  2.743e-17
25.7360  2.743e-17
25.7410  2.741e-17
25.7460  2.738e-17
25.7510  2.738e-17
25.7560  2.732e-17
25.7610  2.732e-17
25.7660  2.729e-17
25.7710  2.726e-17
25.7760  2.726e-17
25.7810  2.724e-17
25.7860  2.722e-17
25.7910  2.722e-17
25.7960  2.716e-17
25.8010  2.716e-17
25.8060  2.713e-17
25.8110  2.710e-17
25.8160  2.710e-17
25.8210  2.705e-17
25.8260  2.705e-17
25.8310  2.702e-17
25.8360  2.699e-17
25.8410  2.699e-17
25.8460  2.696e-17
25.8510  2.693e-17
25.8560  2.693e-17
25.8610  2.689e-17
25.8660  2.689e-17
25.8710  2.686e-17
25.8760  2.683e-17
25.8810  2.683e-17
25.8860  2.678e-17
25.8910  2.678e-17
25.8960  2.675e-17
25.9010  2.672e-17
25.9060  2.672e-17
25.9110  2.669e-17
25.9160  2.666e-17
25.9210  2.666e-17
25.9260  2.661e-17
25.9310  2.661e-17
25.9360  2.658e-17
25.9410  2.656e-17
25.9460  2.656e-17
25.9510  2.651e-17
25.9560  2.651e-17
25.9610  2.648e-17
25.9660  2.645e-17
25.9710  2.645e-17
25.9760  2.642e-17
25.9810  2.639e-17
25.9860  2.639e-17
25.9910  2.634e-17
25.9960  2.634e-17
26.0010  2.631e-17
26.0060  2.628e-17
26.0110  2.628e-17
26.0160  2.623e-17
26.0210  2.623e-17
26.0260  2.620e-17
26.0310  2.618e-17
26.0360  2.618e-17
26.0410  2.615e-17
26.0460  2.612e-17
26.0510  2.612e-17
26.0560  2.606e-17
26.0610  2.606e-17
26.0660  2.603e-17
26.0710  2.599e-17
26.0760  2.599e-17
26.0810  2.594e-17
26.0860  2.594e-17
26.0910  2.590e-17
26.0960  2.587e-17
26.1010  2.587e-17
26.1060  2.584e-17
26.1110  2.581e-17
26.1160  2.581e-17
26.1210  2.573e-17
26.1260  2.573e-17
26.1310  2.569e-17
26.1360  2.565e-17
26.1410  2.565e-17
26.1460  2.560e-17
26.1510  2.556e-17
26.1560  2.556e-17
26.1610  2.547e-17
26.1660  2.547e-17
26.1710  2.545e-17
26.1760  2.543e-17
26.1810  2.543e-17
26.1860  2.542e-17
26.1910  2.542e-17
26.1960  2.541e-17
26.2010  2.541e-17
26.2060  2.541e-17
26.2110  2.540e-17
26.2160  2.538e-17
26.2210  2.538e-17
26.2260  2.535e-17
26.2310  2.535e-17
26.2360  2.534e-17
26.2410  2.532e-17
26.2460  2.532e-17
26.2510  2.530e-17
26.2560  2.528e-17
26.2610  2.528e-17
26.2660  2.524e-17
26.2710  2.524e-17
26.2760  2.521e-17
26.2810  2.519e-17
26.2860  2.519e-17
26.2910  2.517e-17
26.2960  2.515e-17
26.3010  2.515e-17
26.3060  2.510e-17
26.3110  2.510e-17
26.3160  2.507e-17
26.3210  2.505e-17
26.3260  2.505e-17
26.3310  2.500e-17
26.3360  2.500e-17
26.3410  2.497e-17
26.3460  2.495e-17
26.3510  2.495e-17
26.3560  2.493e-17
26.3610  2.491e-17
26.3660  2.491e-17
26.3710  2.486e-17
26.3760  2.486e-17
26.3810  2.483e-17
26.3860  2.481e-17
26.3910  2.481e-17
26.3960  2.478e-17
26.4010  2.476e-17
26.4060  2.476e-17
26.4110  2.471e-17
26.4160  2.471e-17
26.4210  2.468e-17
26.4260  2.466e-17
26.4310  2.466e-17
26.4360  2.463e-17
26.4410  2.461e-17
26.4460  2.461e-17
26.4510  2.456e-17
26.4560  2.456e-17
26.4610  2.454e-17
26.4660  2.451e-17
26.4710  2.451e-17
26.4760  2.449e-17
26.4810  2.446e-17
26.4860  2.446e-17
26.4910  2.441e-17
26.4960  2.441e-17
26.5010  2.439e-17
26.5060  2.436e-17
26.5110  2.436e-17
26.5160  2.434e-17
26.5210  2.431e-17
26.5260  2.431e-17
26.5310  2.426e-17
26.5360  2.426e-17
26.5410  2.424e-17
26.5460  2.421e-17
26.5510  2.421e-17
26.5560  2.419e-17
26.5610  2.416e-17
26.5660  2.416e-17
26.5710  2.411e-17
26.5760  2.411e-17
26.5810  2.409e-17
26.5860  2.406e-17
26.5910  2.406e-17
26.5960  2.404e-17
26.6010  2.402e-17
26.6060  2.402e-17
26.6110  2.396e-17
26.6160  2.396e-17
26.6210  2.393e-17
26.6260  2.391e-17
26.6310  2.391e-17
26.6360  2.388e-17
26.6410  2.386e-17
26.6460  2.386e-17
26.6510  2.381e-17
26.6560  2.381e-17
26.6610  2.378e-17
26.6660  2.375e-17
26.6710  2.375e-17
26.6760  2.373e-17
26.6810  2.370e-17
26.6860  2.370e-17
26.6910  2.366e-17
26.6960  2.366e-17
26.7010  2.364e-17
26.7060  2.361e-17
26.7110  2.361e-17
26.7160  2.359e-17
26.7210  2.357e-17
26.7260  2.357e-17
26.7310  2.353e-17
26.7360  2.353e-17
26.7410  2.351e-17
26.7460  2.349e-17
26.7510  2.349e-17
26.7560  2.346e-17
26.7610  2.344e-17
26.7660  2.344e-17
26.7710  2.340e-17
26.7760  2.340e-17
26.7810  2.337e-17
26.7860  2.335e-17
26.7910  2.335e-17
26.7960  2.333e-17
26.8010  2.331e-17
26.8060  2.331e-17
26.8110  2.326e-17
26.8160  2.326e-17
26.8210  2.324e-17
26.8260  2.322e-17
26.8310  2.322e-17
26.8360  2.319e-17
26.8410  2.317e-17
26.8460  2.317e-17
26.8510  2.315e-17
26.8560  2.312e-17
26.8610  2.312e-17
26.8660  2.308e-17
26.8710  2.308e-17
26.8760  2.305e-17
26.8810  2.303e-17
26.8860  2.303e-17
26.8910  2.301e-17
26.8960  2.298e-17
26.9010  2.298e-17
26.9060  2.294e-17
26.9110  2.294e-17
26.9160  2.292e-17
26.9210  2.289e-17
26.9260  2.289e-17
26.9310  2.287e-17
26.9360  2.284e-17
26.9410  2.284e-17
26.9460  2.280e-17
26.9510  2.280e-17
26.9560  2.278e-17
26.9610  2.275e-17
26.9660  2.275e-17
26.9710  2.273e-17
26.9760  2.271e-17
26.9810  2.271e-17
26.9860  2.269e-17
26.9910  2.266e-17
26.9960  2.266e-17
27.0010  2.262e-17
27.0060  2.262e-17
27.0110  2.260e-17
27.0160  2.257e-17
27.0210  2.257e-17
27.0260  2.255e-17
27.0310  2.253e-17
27.0360  2.253e-17
27.0410  2.248e-17
27.0460  2.248e-17
27.0510  2.246e-17
27.0560  2.244e-17
27.0610  2.244e-17
27.0660  2.242e-17
27.0710  2.239e-17
27.0760  2.239e-17
27.0810  2.237e-17
27.0860  2.235e-17
27.0910  2.235e-17
27.0960  2.230e-17
27.1010  2.230e-17
27.1060  2.228e-17
27.1110  2.226e-17
27.1160  2.226e-17
27.1210  2.224e-17
27.1260  2.222e-17
27.1310  2.222e-17
27.1360  2.217e-17
27.1410  2.217e-17
27.1460  2.215e-17
27.1510  2.213e-17
27.1560  2.213e-17
27.1610  2.211e-17
27.1660  2.209e-17
27.1710  2.209e-17
27.1760  2.206e-17
27.1810  2.204e-17
27.1860  2.204e-17
27.1910  2.199e-17
27.1960  2.199e-17
27.2010  2.197e-17
27.2060  2.195e-17
27.2110  2.195e-17
27.2160  2.193e-17
27.2210  2.190e-17
27.2260  2.190e-17
27.2310  2.188e-17
27.2360  2.186e-17
27.2410  2.186e-17
27.2460  2.182e-17
27.2510  2.182e-17
27.2560  2.180e-17
27.2610  2.177e-17
27.2660  2.177e-17
27.2710  2.175e-17
27.2760  2.173e-17
27.2810  2.173e-17
27.2860  2.171e-17
27.2910  2.169e-17
27.2960  2.169e-17
27.3010  2.164e-17
27.3060  2.164e-17
27.3110  2.162e-17
27.3160  2.160e-17
27.3210  2.160e-17
27.3260  2.158e-17
27.3310  2.156e-17
27.3360  2.156e-17
27.3410  2.154e-17
27.3460  2.152e-17
27.3510  2.152e-17
27.3560  2.147e-17
27.3610  2.147e-17
27.3660  2.145e-17
27.3710  2.143e-17
27.3760  2.143e-17
27.3810  2.141e-17
27.3860  2.138e-17
27.3910  2.138e-17
27.3960  2.136e-17
27.4010  2.134e-17
27.4060  2.134e-17
27.4110  2.130e-17
27.4160  2.130e-17
27.4210  2.128e-17
27.4260  2.125e-17
27.4310  2.125e-17
27.4360  2.123e-17
27.4410  2.121e-17
27.4460  2.121e-17
27.4510  2.119e-17
27.4560  2.117e-17
27.4610  2.117e-17
27.4660  2.113e-17
27.4710  2.113e-17
27.4760  2.111e-17
27.4810  2.109e-17
27.4860  2.109e-17
27.4910  2.107e-17
27.4960  2.105e-17
27.5010  2.105e-17
27.5060  2.102e-17
27.5110  2.100e-17
27.5160  2.100e-17
27.5210  2.096e-17
27.5260  2.096e-17
27.5310  2.094e-17
27.5360  2.091e-17
27.5410  2.091e-17
27.5460  2.089e-17
27.5510  2.087e-17
27.5560  2.087e-17
27.5610  2.085e-17
27.5660  2.083e-17
27.5710  2.083e-17
27.5760  2.079e-17
27.5810  2.079e-17
27.5860  2.077e-17
27.5910  2.075e-17
27.5960  2.075e-17
27.6010  2.072e-17
27.6060  2.070e-17
27.6110  2.070e-17
27.6160  2.068e-17
27.6210  2.066e-17
27.6260  2.066e-17
27.6310  2.062e-17
27.6360  2.062e-17
27.6410  2.060e-17
27.6460  2.058e-17
27.6510  2.058e-17
27.6560  2.055e-17
27.6610  2.053e-17
27.6660  2.053e-17
27.6710  2.051e-17
27.6760  2.049e-17
27.6810  2.049e-17
27.6860  2.046e-17
27.6910  2.044e-17
27.6960  2.044e-17
27.7010  2.039e-17
27.7060  2.039e-17
27.7110  2.036e-17
27.7160  2.033e-17
27.7210  2.033e-17
27.7260  2.030e-17
27.7310  2.026e-17
27.7360  2.026e-17
27.7410  2.022e-17
27.7460  2.018e-17
27.7510  2.018e-17
27.7560  2.012e-17
27.7610  2.006e-17
27.7660  2.006e-17
27.7710  1.982e-17
27.7760  1.982e-17
27.7810  1.959e-17
27.7860  1.936e-17
27.7910  1.936e-17
27.7960  1.917e-17
27.8010  1.898e-17
27.8060  1.898e-17
27.8110  1.912e-17
27.8160  1.925e-17
27.8210  1.925e-17
27.8260  1.964e-17
27.8310  1.964e-17
27.8360  1.972e-17
27.8410  1.981e-17
27.8460  1.981e-17
27.8510  1.983e-17
27.8560  1.986e-17
27.8610  1.986e-17
27.8660  1.986e-17
27.8710  1.986e-17
27.8760  1.986e-17
27.8810  1.985e-17
27.8860  1.984e-17
27.8910  1.984e-17
27.8960  1.982e-17
27.9010  1.982e-17
27.9060  1.981e-17
27.9110  1.979e-17
27.9160  1.979e-17
27.9210  1.978e-17
27.9260  1.976e-17
27.9310  1.976e-17
27.9360  1.974e-17
27.9410  1.972e-17
27.9460  1.972e-17
27.9510  1.970e-17
27.9560  1.969e-17
27.9610  1.969e-17
27.9660  1.964e-17
27.9710  1.964e-17
27.9760  1.963e-17
27.9810  1.961e-17
27.9860  1.961e-17
27.9910  1.959e-17
27.9960  1.957e-17
28.0010  1.957e-17
28.0060  1.955e-17
28.0110  1.953e-17
28.0160  1.953e-17
28.0210  1.951e-17
28.0260  1.950e-17
28.0310  1.950e-17
28.0360  1.948e-17
28.0410  1.945e-17
28.0460  1.945e-17
28.0510  1.941e-17
28.0560  1.941e-17
28.0610  1.940e-17
28.0660  1.938e-17
28.0710  1.938e-17
28.0760  1.936e-17
28.0810  1.934e-17
28.0860  1.934e-17
28.0910  1.932e-17
28.0960  1.930e-17
28.1010  1.930e-17
28.1060  1.928e-17
28.1110  1.927e-17
28.1160  1.927e-17
28.1210  1.922e-17
28.1260  1.922e-17
28.1310  1.920e-17
28.1360  1.918e-17
28.1410  1.918e-17
28.1460  1.917e-17
28.1510  1.915e-17
28.1560  1.915e-17
28.1610  1.913e-17
28.1660  1.911e-17
28.1710  1.911e-17
28.1760  1.909e-17
28.1810  1.907e-17
28.1860  1.907e-17
28.1910  1.905e-17
28.1960  1.903e-17
28.2010  1.903e-17
28.2060  1.899e-17
28.2110  1.899e-17
28.2160  1.897e-17
28.2210  1.895e-17
28.2260  1.895e-17
28.2310  1.894e-17
28.2360  1.892e-17
28.2410  1.892e-17
28.2460  1.890e-17
28.2510  1.888e-17
28.2560  1.888e-17
28.2610  1.886e-17
28.2660  1.884e-17
28.2710  1.884e-17
28.2760  1.882e-17
28.2810  1.880e-17
28.2860  1.880e-17
28.2910  1.876e-17
28.2960  1.876e-17
28.3010  1.875e-17
28.3060  1.873e-17
28.3110  1.873e-17
28.3160  1.871e-17
28.3210  1.869e-17
28.3260  1.869e-17
28.3310  1.867e-17
28.3360  1.865e-17
28.3410  1.865e-17
28.3460  1.863e-17
28.3510  1.861e-17
28.3560  1.861e-17
28.3610  1.859e-17
28.3660  1.857e-17
28.3710  1.857e-17
28.3760  1.856e-17
28.3810  1.854e-17
28.3860  1.854e-17
28.3910  1.850e-17
28.3960  1.850e-17
28.4010  1.848e-17
28.4060  1.847e-17
28.4110  1.847e-17
28.4160  1.844e-17
28.4210  1.842e-17
28.4260  1.842e-17
28.4310  1.841e-17
28.4360  1.839e-17
28.4410  1.839e-17
28.4460  1.837e-17
28.4510  1.835e-17
28.4560  1.835e-17
28.4610  1.833e-17
28.4660  1.832e-17
28.4710  1.832e-17
28.4760  1.828e-17
28.4810  1.828e-17
28.4860  1.826e-17
28.4910  1.824e-17
28.4960  1.824e-17
28.5010  1.823e-17
28.5060  1.821e-17
28.5110  1.821e-17
28.5160  1.819e-17
28.5210  1.817e-17
28.5260  1.817e-17
28.5310  1.815e-17
28.5360  1.814e-17
28.5410  1.814e-17
28.5460  1.811e-17
28.5510  1.809e-17
28.5560  1.809e-17
28.5610  1.808e-17
28.5660  1.806e-17
28.5710  1.806e-17
28.5760  1.804e-17
28.5810  1.802e-17
28.5860  1.802e-17
28.5910  1.799e-17
28.5960  1.799e-17
28.6010  1.797e-17
28.6060  1.795e-17
28.6110  1.795e-17
28.6160  1.793e-17
28.6210  1.791e-17
28.6260  1.791e-17
28.6310  1.789e-17
28.6360  1.787e-17
28.6410  1.787e-17
28.6460  1.785e-17
28.6510  1.783e-17
28.6560  1.783e-17
28.6610  1.781e-17
28.6660  1.780e-17
28.6710  1.780e-17
28.6760  1.778e-17
28.6810  1.776e-17
28.6860  1.776e-17
28.6910  1.774e-17
28.6960  1.771e-17
28.7010  1.771e-17
28.7060  1.767e-17
28.7110  1.767e-17
28.7160  1.765e-17
28.7210  1.762e-17
28.7260  1.762e-17
28.7310  1.760e-17
28.7360  1.757e-17
28.7410  1.757e-17
28.7460  1.755e-17
28.7510  1.752e-17
28.7560  1.752e-17
28.7610  1.748e-17
28.7660  1.745e-17
28.7710  1.745e-17
28.7760  1.741e-17
28.7810  1.737e-17
28.7860  1.737e-17
28.7910  1.731e-17
28.7960  1.725e-17
28.8010  1.725e-17
28.8060  1.717e-17
28.8110  1.708e-17
28.8160  1.708e-17
28.8210  1.699e-17
28.8260  1.690e-17
28.8310  1.690e-17
28.8360  1.691e-17
28.8410  1.691e-17
28.8460  1.697e-17
28.8510  1.703e-17
28.8560  1.703e-17
28.8610  1.707e-17
28.8660  1.711e-17
28.8710  1.711e-17
28.8760  1.713e-17
28.8810  1.715e-17
28.8860  1.715e-17
28.8910  1.715e-17
28.8960  1.715e-17
28.9010  1.715e-17
28.9060  1.714e-17
28.9110  1.713e-17
28.9160  1.713e-17
28.9210  1.712e-17
28.9260  1.710e-17
28.9310  1.710e-17
28.9360  1.709e-17
28.9410  1.707e-17
28.9460  1.707e-17
28.9510  1.705e-17
28.9560  1.704e-17
28.9610  1.704e-17
28.9660  1.702e-17
28.9710  1.701e-17
28.9760  1.701e-17
28.9810  1.698e-17
28.9860  1.698e-17
28.9910  1.697e-17
28.9960  1.696e-17
29.0010  1.696e-17
29.0060  1.694e-17
29.0110  1.693e-17
29.0160  1.693e-17
29.0210  1.692e-17
29.0260  1.691e-17
29.0310  1.691e-17
29.0360  1.689e-17
29.0410  1.688e-17
29.0460  1.688e-17
29.0510  1.687e-17
29.0560  1.685e-17
29.0610  1.685e-17
29.0660  1.683e-17
29.0710  1.682e-17
29.0760  1.682e-17
29.0810  1.680e-17
29.0860  1.679e-17
29.0910  1.679e-17
29.0960  1.677e-17
29.1010  1.676e-17
29.1060  1.676e-17
29.1110  1.674e-17
29.1160  1.673e-17
29.1210  1.673e-17
29.1260  1.671e-17
29.1310  1.669e-17
29.1360  1.669e-17
29.1410  1.668e-17
29.1460  1.666e-17
29.1510  1.666e-17
29.1560  1.663e-17
29.1610  1.663e-17
29.1660  1.661e-17
29.1710  1.660e-17
29.1760  1.660e-17
29.1810  1.658e-17
29.1860  1.657e-17
29.1910  1.657e-17
29.1960  1.655e-17
29.2010  1.654e-17
29.2060  1.654e-17
29.2110  1.652e-17
29.2160  1.650e-17
29.2210  1.650e-17
29.2260  1.649e-17
29.2310  1.647e-17
29.2360  1.647e-17
29.2410  1.645e-17
29.2460  1.644e-17
29.2510  1.644e-17
29.2560  1.642e-17
29.2610  1.640e-17
29.2660  1.640e-17
29.2710  1.639e-17
29.2760  1.637e-17
29.2810  1.637e-17
29.2860  1.635e-17
29.2910  1.634e-17
29.2960  1.634e-17
29.3010  1.632e-17
29.3060  1.630e-17
29.3110  1.630e-17
29.3160  1.629e-17
29.3210  1.627e-17
29.3260  1.627e-17
29.3310  1.625e-17
29.3360  1.624e-17
29.3410  1.624e-17
29.3460  1.622e-17
29.3510  1.621e-17
29.3560  1.621e-17
29.3610  1.619e-17
29.3660  1.617e-17
29.3710  1.617e-17
29.3760  1.616e-17
29.3810  1.614e-17
29.3860  1.614e-17
29.3910  1.612e-17
29.3960  1.611e-17
29.4010  1.611e-17
29.4060  1.607e-17
29.4110  1.607e-17
29.4160  1.606e-17
29.4210  1.604e-17
29.4260  1.604e-17
29.4310  1.602e-17
29.4360  1.601e-17
29.4410  1.601e-17
29.4460  1.600e-17
29.4510  1.598e-17
29.4560  1.598e-17
29.4610  1.597e-17
29.4660  1.595e-17
29.4710  1.595e-17
29.4760  1.593e-17
29.4810  1.592e-17
29.4860  1.592e-17
29.4910  1.590e-17
29.4960  1.588e-17
29.5010  1.588e-17
29.5060  1.587e-17
29.5110  1.585e-17
29.5160  1.585e-17
29.5210  1.583e-17
29.5260  1.582e-17
29.5310  1.582e-17
29.5360  1.580e-17
29.5410  1.578e-17
29.5460  1.578e-17
29.5510  1.577e-17
29.5560  1.575e-17
29.5610  1.575e-17
29.5660  1.574e-17
29.5710  1.572e-17
29.5760  1.572e-17
29.5810  1.570e-17
29.5860  1.569e-17
29.5910  1.569e-17
29.5960  1.567e-17
29.6010  1.565e-17
29.6060  1.565e-17
29.6110  1.564e-17
29.6160  1.562e-17
29.6210  1.562e-17
29.6260  1.561e-17
29.6310  1.560e-17
29.6360  1.560e-17
29.6410  1.558e-17
29.6460  1.556e-17
29.6510  1.556e-17
29.6560  1.554e-17
29.6610  1.552e-17
29.6660  1.552e-17
29.6710  1.550e-17
29.6760  1.549e-17
29.6810  1.549e-17
29.6860  1.547e-17
29.6910  1.546e-17
29.6960  1.546e-17
29.7010  1.544e-17
29.7060  1.542e-17
29.7110  1.542e-17
29.7160  1.540e-17
29.7210  1.538e-17
29.7260  1.538e-17
29.7310  1.536e-17
29.7360  1.534e-17
29.7410  1.534e-17
29.7460  1.532e-17
29.7510  1.530e-17
29.7560  1.530e-17
29.7610  1.527e-17
29.7660  1.524e-17
29.7710  1.524e-17
29.7760  1.520e-17
29.7810  1.517e-17
29.7860  1.517e-17
29.7910  1.512e-17
29.7960  1.507e-17
29.8010  1.507e-17
29.8060  1.498e-17
29.8110  1.489e-17
29.8160  1.489e-17
29.8210  1.476e-17
29.8260  1.462e-17
29.8310  1.462e-17
29.8360  1.455e-17
29.8410  1.448e-17
29.8460  1.448e-17
29.8510  1.456e-17
29.8560  1.465e-17
29.8610  1.465e-17
29.8660  1.474e-17
29.8710  1.483e-17
29.8760  1.483e-17
29.8810  1.487e-17
29.8860  1.491e-17
29.8910  1.491e-17
29.8960  1.492e-17
29.9010  1.493e-17
29.9060  1.493e-17
29.9110  1.492e-17
29.9160  1.492e-17
29.9210  1.492e-17
29.9260  1.491e-17
29.9310  1.489e-17
29.9360  1.489e-17
29.9410  1.488e-17
29.9460  1.486e-17
29.9510  1.486e-17
29.9560  1.484e-17
29.9610  1.481e-17
29.9660  1.481e-17
29.9710  1.478e-17
29.9760  1.475e-17
29.9810  1.475e-17
29.9860  1.470e-17
29.9910  1.466e-17
29.9960  1.465e-17
